File: ZnPVAECH_09 04-22-22-Zn -09 PVA ECH 1600 rpm K-L RDE1 gc_03_CA_C05(1).mpt
EC-Lab ASCII FILE
Nb header lines : 63

Chronoamperometry / Chronocoulometry

Run on channel : 5 (SN 6729)
User :
CE vs. WE compliance from -10 V to 10 V
Electrode connection : standard
Potential control : Ewe
Ewe ctrl range : min = -2.50 V, max = 2.50 V
Safety Limits :
	Do not start on E overload
Acquisition started on : 04/04/2022 13:04:27.143
Technique started on : 04/04/2022 13:08:40.435
Loaded Setting File :  NONE
Saved on :
	File : 04-22-22-Zn PVA ECH 1600 rpm K-L RDE1 gc_03_CA_C05.mpr
	Directory : \\research-scb.egr.msu.edu\research-scb\Mindy\Koutecky Levich\Zn PVA\ECH\04-04-22\
	Host : 35.9.136.210
Device : VSP (SN 0012)
Address : 35.9.137.65
EC-Lab for windows v11.43 (software)
Internet server v11.40 (firmware)
Command interpretor v11.40 (firmware)
Electrode material : Au/Pd
Initial state :
Electrolyte : NaCl (0.2M)
Comments : Fe(CN)63-/Fe(CN)64- 5.10-3 M
Reference electrode : SCE Saturated Calomel Electrode (0.241 V)
Electrode surface area : 0.196 cm²
Characteristic mass : 0.001 g
Equivalent Weight : 0.000 g/eq.
Density : 0.000 g/cm3
Volume (V) : 0.001 cm³
Cycle Definition : Charge/Discharge alternance
Ei (V)              -0.900
vs.                 Ref
ti (h:m:s)          0:10:0.0000
Imax                pass
unit Imax           mA
Imin                pass
unit Imin           mA
dQM                 0.000
unit dQM            mA.h
record              <I>
dI                  5.000
unit dI             µA
dQ                  0.000
unit dQ             mA.h
dt (s)              0.1000
dta (s)             0.1000
E range min (V)     -2.500
E range max (V)     2.500
I Range             Auto
I Range min         Unset
I Range max         Unset
I Range init        Unset
Bandwidth           5
goto Ns'            0
nc cycles           0

mode	ox/red	error	control changes	Ns changes	counter inc.	Ns	time/s	control/V	Ewe/V	<I>/mA	dQ/C	(Q-Qo)/C	I Range	Q charge/discharge/mA.h	half cycle	Q discharge/mA.h	Q charge/mA.h	Capacity/mA.h	Efficiency/%	cycle number	P/W
2	0	0	1	0	0	0	253.292	-0.899966	-0.900248	-4.69096	-0.000122553	-0.000122553	11	-3.40425e-05	0	3.40425e-05	0.000000000000000E+000	3.40425e-05	0.0000000E+000	0.000000000000000E+000	0.00422303
2	0	0	1	0	0	0	257.792	-0.899966	-0.900496	-4.58812	-0.020808	-0.020808	11	-0.00578	0	0.00578	0.000000000000000E+000	0.00578	0.0000000E+000	0.000000000000000E+000	0.00413158
2	0	0	1	0	0	0	262.292	-0.899966	-0.900611	-4.59044	-0.0414674	-0.0414674	11	-0.0115187	0	0.0115187	0.000000000000000E+000	0.0115187	0.0000000E+000	0.000000000000000E+000	0.0041342
2	0	0	1	0	0	0	266.792	-0.899966	-0.900248	-4.59597	-0.0621282	-0.0621282	11	-0.0172578	0	0.0172578	0.000000000000000E+000	0.0172578	0.0000000E+000	0.000000000000000E+000	0.00413751
2	0	0	1	0	0	0	271.292	-0.899966	-0.900458	-4.42584	-0.0825041	-0.0825041	11	-0.0229178	0	0.0229178	0.000000000000000E+000	0.0229178	0.0000000E+000	0.000000000000000E+000	0.00398528
2	0	0	1	0	0	0	275.792	-0.899966	-0.900515	-4.41841	-0.102394	-0.102394	11	-0.0284429	0	0.0284429	0.000000000000000E+000	0.0284429	0.0000000E+000	0.000000000000000E+000	0.00397885
2	0	0	1	0	0	0	280.292	-0.899966	-0.900573	-4.40969	-0.122273	-0.122273	11	-0.0339648	0	0.0339648	0.000000000000000E+000	0.0339648	0.0000000E+000	0.000000000000000E+000	0.00397125
2	0	0	1	0	0	0	284.792	-0.899966	-0.900305	-4.28167	-0.14181	-0.14181	11	-0.0393917	0	0.0393917	0.000000000000000E+000	0.0393917	0.0000000E+000	0.000000000000000E+000	0.00385481
2	0	0	1	0	0	0	289.292	-0.899966	-0.900515	-4.2762	-0.161061	-0.161061	11	-0.0447392	0	0.0447392	0.000000000000000E+000	0.0447392	0.0000000E+000	0.000000000000000E+000	0.00385078
2	0	0	1	0	0	0	293.792	-0.899966	-0.900458	-4.27052	-0.180287	-0.180287	11	-0.0500797	0	0.0500797	0.000000000000000E+000	0.0500797	0.0000000E+000	0.000000000000000E+000	0.00384543
2	0	0	1	0	0	0	298.292	-0.899966	-0.900458	-3.96116	-0.199134	-0.199134	11	-0.0553151	0	0.0553151	0.000000000000000E+000	0.0553151	0.0000000E+000	0.000000000000000E+000	0.00356686
2	0	0	1	0	0	0	302.792	-0.899966	-0.900343	-3.95091	-0.216853	-0.216853	11	-0.0602369	0	0.0602369	0.000000000000000E+000	0.0602369	0.0000000E+000	0.000000000000000E+000	0.00355717
2	0	0	1	0	0	0	307.292	-0.899966	-0.900229	-3.91662	-0.234556	-0.234556	11	-0.0651545	0	0.0651545	0.000000000000000E+000	0.0651545	0.0000000E+000	0.000000000000000E+000	0.00352586
2	0	0	1	0	0	0	311.792	-0.899966	-0.900859	-3.92504	-0.252258	-0.252258	11	-0.0700716	0	0.0700716	0.000000000000000E+000	0.0700716	0.0000000E+000	0.000000000000000E+000	0.00353591
2	0	0	1	0	0	0	316.292	-0.899966	-0.900305	-3.62539	-0.269071	-0.269071	11	-0.074742	0	0.074742	0.000000000000000E+000	0.074742	0.0000000E+000	0.000000000000000E+000	0.00326396
2	0	0	1	0	0	0	320.792	-0.899966	-0.900382	-3.65148	-0.285442	-0.285442	11	-0.0792894	0	0.0792894	0.000000000000000E+000	0.0792894	0.0000000E+000	0.000000000000000E+000	0.00328772
2	0	0	1	0	0	0	325.292	-0.899966	-0.900592	-3.61119	-0.301792	-0.301792	11	-0.0838312	0	0.0838312	0.000000000000000E+000	0.0838312	0.0000000E+000	0.000000000000000E+000	0.00325221
2	0	0	1	0	0	0	329.792	-0.899966	-0.900286	-3.17358	-0.317236	-0.317236	11	-0.0881212	0	0.0881212	0.000000000000000E+000	0.0881212	0.0000000E+000	0.000000000000000E+000	0.00285713
2	0	0	1	0	0	0	334.292	-0.899966	-0.900553	-3.20196	-0.331631	-0.331631	11	-0.0921198	0	0.0921198	0.000000000000000E+000	0.0921198	0.0000000E+000	0.000000000000000E+000	0.00288354
2	0	0	1	0	0	0	338.792	-0.899966	-0.900477	-3.19179	-0.346064	-0.346064	11	-0.0961289	0	0.0961289	0.000000000000000E+000	0.0961289	0.0000000E+000	0.000000000000000E+000	0.00287413
2	0	0	1	0	0	0	343.292	-0.899966	-0.900439	-3.23252	-0.360511	-0.360511	11	-0.100142	0	0.100142	0.000000000000000E+000	0.100142	0.0000000E+000	0.000000000000000E+000	0.00291068
2	0	0	1	0	0	0	347.792	-0.899966	-0.900343	-2.85184	-0.374146	-0.374146	11	-0.10393	0	0.10393	0.000000000000000E+000	0.10393	0.0000000E+000	0.000000000000000E+000	0.00256763
2	0	0	1	0	0	0	352.292	-0.899966	-0.900515	-2.83066	-0.386953	-0.386953	11	-0.107487	0	0.107487	0.000000000000000E+000	0.107487	0.0000000E+000	0.000000000000000E+000	0.00254905
2	0	0	1	0	0	0	356.792	-0.899966	-0.900439	-2.8586	-0.399748	-0.399748	11	-0.111041	0	0.111041	0.000000000000000E+000	0.111041	0.0000000E+000	0.000000000000000E+000	0.002574
2	0	0	1	0	0	0	361.292	-0.899966	-0.900362	-2.84997	-0.412545	-0.412545	11	-0.114596	0	0.114596	0.000000000000000E+000	0.114596	0.0000000E+000	0.000000000000000E+000	0.00256601
2	0	0	1	0	0	0	365.792	-0.899966	-0.900229	-2.84025	-0.425354	-0.425354	11	-0.118154	0	0.118154	0.000000000000000E+000	0.118154	0.0000000E+000	0.000000000000000E+000	0.00255688
2	0	0	1	0	0	0	370.292	-0.899966	-0.900401	-3.18481	-0.438621	-0.438621	11	-0.121839	0	0.121839	0.000000000000000E+000	0.121839	0.0000000E+000	0.000000000000000E+000	0.0028676
2	0	0	1	0	0	0	374.792	-0.899966	-0.900382	-3.18237	-0.453013	-0.453013	11	-0.125837	0	0.125837	0.000000000000000E+000	0.125837	0.0000000E+000	0.000000000000000E+000	0.00286535
2	0	0	1	0	0	0	379.292	-0.899966	-0.900362	-3.2216	-0.467417	-0.467417	11	-0.129838	0	0.129838	0.000000000000000E+000	0.129838	0.0000000E+000	0.000000000000000E+000	0.00290061
2	0	0	1	0	0	0	383.792	-0.899966	-0.900324	-3.20336	-0.481808	-0.481808	11	-0.133836	0	0.133836	0.000000000000000E+000	0.133836	0.0000000E+000	0.000000000000000E+000	0.00288406
2	0	0	1	0	0	0	388.292	-0.899966	-0.900267	-3.19088	-0.496224	-0.496224	11	-0.13784	0	0.13784	0.000000000000000E+000	0.13784	0.0000000E+000	0.000000000000000E+000	0.00287264
2	0	0	1	0	0	0	392.792	-0.899966	-0.900362	-3.22353	-0.510633	-0.510633	11	-0.141843	0	0.141843	0.000000000000000E+000	0.141843	0.0000000E+000	0.000000000000000E+000	0.00290235
2	0	0	1	0	0	0	397.292	-0.899966	-0.900439	-3.19829	-0.525031	-0.525031	11	-0.145842	0	0.145842	0.000000000000000E+000	0.145842	0.0000000E+000	0.000000000000000E+000	0.00287986
2	0	0	1	0	0	0	401.792	-0.899966	-0.900267	-3.1699	-0.539412	-0.539412	11	-0.149837	0	0.149837	0.000000000000000E+000	0.149837	0.0000000E+000	0.000000000000000E+000	0.00285376
2	0	0	1	0	0	0	406.292	-0.899966	-0.900496	-3.28422	-0.553812	-0.553812	11	-0.153837	0	0.153837	0.000000000000000E+000	0.153837	0.0000000E+000	0.000000000000000E+000	0.00295743
2	0	0	1	0	0	0	410.792	-0.899966	-0.90042	-3.62392	-0.569979	-0.569979	11	-0.158327	0	0.158327	0.000000000000000E+000	0.158327	0.0000000E+000	0.000000000000000E+000	0.00326305
2	0	0	1	0	0	0	415.292	-0.899966	-0.900573	-3.60991	-0.586236	-0.586236	11	-0.162843	0	0.162843	0.000000000000000E+000	0.162843	0.0000000E+000	0.000000000000000E+000	0.00325099
2	0	0	1	0	0	0	419.792	-0.899966	-0.900305	-3.58828	-0.602467	-0.602467	11	-0.167352	0	0.167352	0.000000000000000E+000	0.167352	0.0000000E+000	0.000000000000000E+000	0.00323055
2	0	0	1	0	0	0	424.292	-0.899966	-0.900401	-3.89838	-0.619716	-0.619716	11	-0.172143	0	0.172143	0.000000000000000E+000	0.172143	0.0000000E+000	0.000000000000000E+000	0.00351011
2	0	0	1	0	0	0	428.792	-0.899966	-0.900477	-3.91234	-0.637218	-0.637218	11	-0.177005	0	0.177005	0.000000000000000E+000	0.177005	0.0000000E+000	0.000000000000000E+000	0.00352297
2	0	0	1	0	0	0	433.292	-0.899966	-0.90021	-3.87142	-0.654702	-0.654702	11	-0.181862	0	0.181862	0.000000000000000E+000	0.181862	0.0000000E+000	0.000000000000000E+000	0.00348509
2	0	0	1	0	0	0	437.792	-0.899966	-0.900592	-3.8593	-0.672166	-0.672166	11	-0.186713	0	0.186713	0.000000000000000E+000	0.186713	0.0000000E+000	0.000000000000000E+000	0.00347565
2	0	0	1	0	0	0	442.292	-0.899966	-0.90042	-3.88235	-0.689624	-0.689624	11	-0.191562	0	0.191562	0.000000000000000E+000	0.191562	0.0000000E+000	0.000000000000000E+000	0.00349574
2	0	0	1	0	0	0	446.792	-0.899966	-0.900477	-3.90341	-0.707093	-0.707093	11	-0.196415	0	0.196415	0.000000000000000E+000	0.196415	0.0000000E+000	0.000000000000000E+000	0.00351494
2	0	0	1	0	0	0	451.292	-0.899966	-0.900305	-4.20226	-0.725774	-0.725774	11	-0.201604	0	0.201604	0.000000000000000E+000	0.201604	0.0000000E+000	0.000000000000000E+000	0.00378331
2	0	0	1	0	0	0	455.792	-0.899966	-0.900343	-4.20011	-0.744677	-0.744677	11	-0.206855	0	0.206855	0.000000000000000E+000	0.206855	0.0000000E+000	0.000000000000000E+000	0.00378154
2	0	0	1	0	0	0	460.292	-0.899966	-0.900573	-4.19769	-0.763567	-0.763567	11	-0.212102	0	0.212102	0.000000000000000E+000	0.212102	0.0000000E+000	0.000000000000000E+000	0.00378032
2	0	0	1	0	0	0	464.792	-0.899966	-0.900515	-4.19265	-0.782452	-0.782452	11	-0.217348	0	0.217348	0.000000000000000E+000	0.217348	0.0000000E+000	0.000000000000000E+000	0.00377554
2	0	0	1	0	0	0	469.292	-0.899966	-0.900515	-4.19054	-0.80131	-0.80131	11	-0.222586	0	0.222586	0.000000000000000E+000	0.222586	0.0000000E+000	0.000000000000000E+000	0.00377364
2	0	0	1	0	0	0	473.792	-0.899966	-0.900611	-3.97879	-0.82006	-0.82006	11	-0.227794	0	0.227794	0.000000000000000E+000	0.227794	0.0000000E+000	0.000000000000000E+000	0.00358334
2	0	0	1	0	0	0	478.292	-0.899966	-0.900382	-3.88285	-0.837485	-0.837485	11	-0.232635	0	0.232635	0.000000000000000E+000	0.232635	0.0000000E+000	0.000000000000000E+000	0.00349605
2	0	0	1	0	0	0	482.792	-0.899966	-0.900859	-4.31312	-0.856078	-0.856078	11	-0.237799	0	0.237799	0.000000000000000E+000	0.237799	0.0000000E+000	0.000000000000000E+000	0.00388552
2	0	0	1	0	0	0	487.292	-0.899966	-0.900515	-4.31725	-0.875476	-0.875476	11	-0.243188	0	0.243188	0.000000000000000E+000	0.243188	0.0000000E+000	0.000000000000000E+000	0.00388775
2	0	0	1	0	0	0	491.792	-0.899966	-0.900534	-4.31198	-0.894873	-0.894873	11	-0.248576	0	0.248576	0.000000000000000E+000	0.248576	0.0000000E+000	0.000000000000000E+000	0.00388309
2	0	0	1	0	0	0	496.292	-0.899966	-0.900114	-4.44719	-0.914872	-0.914872	11	-0.254131	0	0.254131	0.000000000000000E+000	0.254131	0.0000000E+000	0.000000000000000E+000	0.00400298
2	0	0	1	0	0	0	500.792	-0.899966	-0.90042	-4.43565	-0.934872	-0.934872	11	-0.259687	0	0.259687	0.000000000000000E+000	0.259687	0.0000000E+000	0.000000000000000E+000	0.00399394
2	0	0	1	0	0	0	504.785	-0.899966	-0.900153	-4.439	-0.952593	-0.952593	11	-0.264609	0	0.264609	0.000000000000000E+000	0.264609	0.0000000E+000	0.000000000000000E+000	0.00399578