File: ZnPVAECH_09 04-22-22-Zn -09 PVA ECH 1600 rpm K-L gc3_03_CA_C05(1).mpt
EC-Lab ASCII FILE
Nb header lines : 63

Chronoamperometry / Chronocoulometry

Run on channel : 5 (SN 6729)
User :
CE vs. WE compliance from -10 V to 10 V
Electrode connection : standard
Potential control : Ewe
Ewe ctrl range : min = -2.50 V, max = 2.50 V
Safety Limits :
	Do not start on E overload
Acquisition started on : 04/04/2022 13:47:44.060
Technique started on : 04/04/2022 13:52:25.734
Loaded Setting File :  NONE
Saved on :
	File : 04-22-22-Zn PVA ECH 1600 rpm K-L gc3_03_CA_C05.mpr
	Directory : \\research-scb.egr.msu.edu\research-scb\Mindy\Koutecky Levich\Zn PVA\ECH\04-04-22\
	Host : 35.9.136.210
Device : VSP (SN 0012)
Address : 35.9.137.65
EC-Lab for windows v11.43 (software)
Internet server v11.40 (firmware)
Command interpretor v11.40 (firmware)
Electrode material : Au/Pd
Initial state :
Electrolyte : NaCl (0.2M)
Comments : Fe(CN)63-/Fe(CN)64- 5.10-3 M
Reference electrode : SCE Saturated Calomel Electrode (0.241 V)
Electrode surface area : 0.196 cm²
Characteristic mass : 0.001 g
Equivalent Weight : 0.000 g/eq.
Density : 0.000 g/cm3
Volume (V) : 0.001 cm³
Cycle Definition : Charge/Discharge alternance
Ei (V)              -0.900
vs.                 Ref
ti (h:m:s)          0:10:0.0000
Imax                pass
unit Imax           mA
Imin                pass
unit Imin           mA
dQM                 0.000
unit dQM            mA.h
record              <I>
dI                  5.000
unit dI             µA
dQ                  0.000
unit dQ             mA.h
dt (s)              0.1000
dta (s)             0.1000
E range min (V)     -2.500
E range max (V)     2.500
I Range             Auto
I Range min         Unset
I Range max         Unset
I Range init        Unset
Bandwidth           5
goto Ns'            0
nc cycles           0

mode	ox/red	error	control changes	Ns changes	counter inc.	Ns	time/s	control/V	Ewe/V	<I>/mA	dQ/C	(Q-Qo)/C	I Range	Q charge/discharge/mA.h	half cycle	Q discharge/mA.h	Q charge/mA.h	Capacity/mA.h	Efficiency/%	cycle number	P/W
2	0	0	0	0	0	0	281.674	-0.899966	-0.900305	-3.81776	-0.00011528	-0.00011528	11	-3.20221e-05	0	3.20221e-05	0.000000000000000E+000	3.20221e-05	0.0000000E+000	0.000000000000000E+000	0.00343715
2	0	0	0	0	0	0	286.274	-0.899966	-0.900458	-3.7596	-0.0174609	-0.0174609	11	-0.00485024	0	0.00485024	0.000000000000000E+000	0.00485024	0.0000000E+000	0.000000000000000E+000	0.00338536
2	0	0	0	0	0	0	290.874	-0.899966	-0.900324	-3.75583	-0.0347487	-0.0347487	11	-0.00965242	0	0.00965242	0.000000000000000E+000	0.00965242	0.0000000E+000	0.000000000000000E+000	0.00338146
2	0	0	0	0	0	0	295.474	-0.899966	-0.900439	-3.8242	-0.052304	-0.052304	11	-0.0145289	0	0.0145289	0.000000000000000E+000	0.0145289	0.0000000E+000	0.000000000000000E+000	0.00344346
2	0	0	0	0	0	0	300.074	-0.899966	-0.900305	-3.80836	-0.0698613	-0.0698613	11	-0.0194059	0	0.0194059	0.000000000000000E+000	0.0194059	0.0000000E+000	0.000000000000000E+000	0.00342869
2	0	0	0	0	0	0	304.674	-0.899966	-0.900382	-3.73537	-0.087213	-0.087213	11	-0.0242258	0	0.0242258	0.000000000000000E+000	0.0242258	0.0000000E+000	0.000000000000000E+000	0.00336326
2	0	0	0	0	0	0	309.274	-0.899966	-0.90021	-3.72672	-0.104373	-0.104373	11	-0.0289925	0	0.0289925	0.000000000000000E+000	0.0289925	0.0000000E+000	0.000000000000000E+000	0.00335483
2	0	0	0	0	0	0	313.874	-0.899966	-0.900401	-3.59234	-0.121237	-0.121237	11	-0.0336771	0	0.0336771	0.000000000000000E+000	0.0336771	0.0000000E+000	0.000000000000000E+000	0.00323455
2	0	0	0	0	0	0	318.474	-0.899966	-0.90042	-3.59156	-0.137773	-0.137773	11	-0.0382703	0	0.0382703	0.000000000000000E+000	0.0382703	0.0000000E+000	0.000000000000000E+000	0.00323391
2	0	0	0	0	0	0	323.074	-0.899966	-0.900382	-3.48254	-0.154122	-0.154122	11	-0.0428116	0	0.0428116	0.000000000000000E+000	0.0428116	0.0000000E+000	0.000000000000000E+000	0.00313561
2	0	0	0	0	0	0	327.674	-0.899966	-0.900382	-3.47693	-0.170127	-0.170127	11	-0.0472575	0	0.0472575	0.000000000000000E+000	0.0472575	0.0000000E+000	0.000000000000000E+000	0.00313057
2	0	0	0	0	0	0	332.274	-0.899966	-0.900324	-3.23088	-0.185479	-0.185479	11	-0.0515219	0	0.0515219	0.000000000000000E+000	0.0515219	0.0000000E+000	0.000000000000000E+000	0.00290884
2	0	0	0	0	0	0	336.874	-0.899966	-0.900515	-3.21924	-0.200304	-0.200304	11	-0.0556399	0	0.0556399	0.000000000000000E+000	0.0556399	0.0000000E+000	0.000000000000000E+000	0.00289897
2	0	0	0	0	0	0	341.474	-0.899966	-0.900496	-3.02605	-0.214944	-0.214944	11	-0.0597067	0	0.0597067	0.000000000000000E+000	0.0597067	0.0000000E+000	0.000000000000000E+000	0.00272495
2	0	0	0	0	0	0	346.074	-0.899966	-0.900401	-3.00799	-0.228751	-0.228751	11	-0.0635419	0	0.0635419	0.000000000000000E+000	0.0635419	0.0000000E+000	0.000000000000000E+000	0.0027084
2	0	0	0	0	0	0	350.674	-0.899966	-0.900343	-2.78681	-0.242454	-0.242454	11	-0.0673484	0	0.0673484	0.000000000000000E+000	0.0673484	0.0000000E+000	0.000000000000000E+000	0.00250909
2	0	0	0	0	0	0	355.274	-0.899966	-0.90042	-2.68086	-0.254872	-0.254872	11	-0.0707978	0	0.0707978	0.000000000000000E+000	0.0707978	0.0000000E+000	0.000000000000000E+000	0.0024139
2	0	0	0	0	0	0	359.874	-0.899966	-0.900362	-2.67608	-0.267211	-0.267211	11	-0.0742252	0	0.0742252	0.000000000000000E+000	0.0742252	0.0000000E+000	0.000000000000000E+000	0.00240944
2	0	0	0	0	0	0	364.474	-0.899966	-0.900362	-2.67848	-0.279543	-0.279543	11	-0.0776509	0	0.0776509	0.000000000000000E+000	0.0776509	0.0000000E+000	0.000000000000000E+000	0.0024116
2	0	0	0	0	0	0	369.074	-0.899966	-0.900439	-2.65341	-0.291858	-0.291858	11	-0.0810716	0	0.0810716	0.000000000000000E+000	0.0810716	0.0000000E+000	0.000000000000000E+000	0.00238923
2	0	0	0	0	0	0	373.674	-0.899966	-0.900382	-2.40756	-0.303216	-0.303216	11	-0.0842266	0	0.0842266	0.000000000000000E+000	0.0842266	0.0000000E+000	0.000000000000000E+000	0.00216772
2	0	0	0	0	0	0	378.274	-0.899966	-0.90042	-2.41319	-0.314299	-0.314299	11	-0.0873053	0	0.0873053	0.000000000000000E+000	0.0873053	0.0000000E+000	0.000000000000000E+000	0.00217288
2	0	0	0	0	0	0	382.874	-0.899966	-0.900362	-2.4146	-0.325399	-0.325399	11	-0.0903885	0	0.0903885	0.000000000000000E+000	0.0903885	0.0000000E+000	0.000000000000000E+000	0.00217401
2	0	0	0	0	0	0	387.474	-0.899966	-0.900401	-1.84294	-0.335762	-0.335762	11	-0.0932672	0	0.0932672	0.000000000000000E+000	0.0932672	0.0000000E+000	0.000000000000000E+000	0.00165938
2	0	0	0	0	0	0	392.074	-0.899966	-0.900382	-2.10283	-0.344423	-0.344423	11	-0.0956731	0	0.0956731	0.000000000000000E+000	0.0956731	0.0000000E+000	0.000000000000000E+000	0.00189335
2	0	0	0	0	0	0	396.674	-0.899966	-0.900343	-2.20771	-0.354526	-0.354526	11	-0.0984795	0	0.0984795	0.000000000000000E+000	0.0984795	0.0000000E+000	0.000000000000000E+000	0.0019877
2	0	0	0	0	0	0	401.274	-0.899966	-0.900382	-2.20623	-0.364721	-0.364721	11	-0.101311	0	0.101311	0.000000000000000E+000	0.101311	0.0000000E+000	0.000000000000000E+000	0.00198645
2	0	0	0	0	0	0	405.874	-0.899966	-0.900401	-2.20706	-0.374902	-0.374902	11	-0.104139	0	0.104139	0.000000000000000E+000	0.104139	0.0000000E+000	0.000000000000000E+000	0.00198724
2	0	0	0	0	0	0	410.474	-0.899966	-0.900458	-2.21033	-0.385089	-0.385089	11	-0.106969	0	0.106969	0.000000000000000E+000	0.106969	0.0000000E+000	0.000000000000000E+000	0.00199031
2	0	0	0	0	0	0	415.074	-0.899966	-0.900362	-2.74155	-0.396135	-0.396135	11	-0.110037	0	0.110037	0.000000000000000E+000	0.110037	0.0000000E+000	0.000000000000000E+000	0.00246839
2	0	0	0	0	0	0	419.674	-0.899966	-0.900477	-2.40982	-0.407708	-0.407708	11	-0.113252	0	0.113252	0.000000000000000E+000	0.113252	0.0000000E+000	0.000000000000000E+000	0.00216999
2	0	0	0	0	0	0	424.274	-0.899966	-0.900401	-2.40419	-0.418776	-0.418776	11	-0.116327	0	0.116327	0.000000000000000E+000	0.116327	0.0000000E+000	0.000000000000000E+000	0.00216474
2	0	0	0	0	0	0	428.874	-0.899966	-0.900439	-2.63027	-0.4301	-0.4301	11	-0.119472	0	0.119472	0.000000000000000E+000	0.119472	0.0000000E+000	0.000000000000000E+000	0.0023684
2	0	0	0	0	0	0	433.474	-0.899966	-0.900382	-2.6776	-0.442341	-0.442341	11	-0.122872	0	0.122872	0.000000000000000E+000	0.122872	0.0000000E+000	0.000000000000000E+000	0.00241086
2	0	0	0	0	0	0	438.074	-0.899966	-0.900382	-3.10731	-0.455017	-0.455017	11	-0.126394	0	0.126394	0.000000000000000E+000	0.126394	0.0000000E+000	0.000000000000000E+000	0.00279776
2	0	0	0	0	0	0	442.674	-0.899966	-0.900439	-2.95166	-0.468702	-0.468702	11	-0.130195	0	0.130195	0.000000000000000E+000	0.130195	0.0000000E+000	0.000000000000000E+000	0.00265779
2	0	0	0	0	0	0	447.274	-0.899966	-0.900324	-2.94479	-0.48232	-0.48232	11	-0.133978	0	0.133978	0.000000000000000E+000	0.133978	0.0000000E+000	0.000000000000000E+000	0.00265127
2	0	0	0	0	0	0	451.874	-0.899966	-0.900401	-3.17684	-0.496284	-0.496284	11	-0.137857	0	0.137857	0.000000000000000E+000	0.137857	0.0000000E+000	0.000000000000000E+000	0.00286042
2	0	0	0	0	0	0	456.474	-0.899966	-0.900362	-3.16782	-0.510859	-0.510859	11	-0.141905	0	0.141905	0.000000000000000E+000	0.141905	0.0000000E+000	0.000000000000000E+000	0.00285219
2	0	0	0	0	0	0	461.074	-0.899966	-0.900401	-3.1522	-0.525417	-0.525417	11	-0.145949	0	0.145949	0.000000000000000E+000	0.145949	0.0000000E+000	0.000000000000000E+000	0.00283824
2	0	0	0	0	0	0	465.674	-0.899966	-0.900401	-3.40934	-0.540753	-0.540753	11	-0.150209	0	0.150209	0.000000000000000E+000	0.150209	0.0000000E+000	0.000000000000000E+000	0.00306977
2	0	0	0	0	0	0	470.274	-0.899966	-0.900382	-3.39973	-0.556403	-0.556403	11	-0.154556	0	0.154556	0.000000000000000E+000	0.154556	0.0000000E+000	0.000000000000000E+000	0.00306106
2	0	0	0	0	0	0	474.874	-0.899966	-0.90042	-3.38948	-0.572022	-0.572022	11	-0.158895	0	0.158895	0.000000000000000E+000	0.158895	0.0000000E+000	0.000000000000000E+000	0.00305196
2	0	0	0	0	0	0	479.474	-0.899966	-0.900267	-3.48449	-0.588021	-0.588021	11	-0.163339	0	0.163339	0.000000000000000E+000	0.163339	0.0000000E+000	0.000000000000000E+000	0.00313697
2	0	0	0	0	0	0	484.074	-0.899966	-0.900286	-3.47437	-0.60403	-0.60403	11	-0.167786	0	0.167786	0.000000000000000E+000	0.167786	0.0000000E+000	0.000000000000000E+000	0.00312792
2	0	0	0	0	0	0	488.674	-0.899966	-0.900095	-3.5806	-0.620307	-0.620307	11	-0.172308	0	0.172308	0.000000000000000E+000	0.172308	0.0000000E+000	0.000000000000000E+000	0.00322288
2	0	0	0	0	0	0	493.274	-0.899966	-0.900496	-3.57995	-0.636756	-0.636756	11	-0.176877	0	0.176877	0.000000000000000E+000	0.176877	0.0000000E+000	0.000000000000000E+000	0.00322373
2	0	0	0	0	0	0	497.874	-0.899966	-0.900573	-3.56721	-0.653186	-0.653186	11	-0.181441	0	0.181441	0.000000000000000E+000	0.181441	0.0000000E+000	0.000000000000000E+000	0.00321253
2	0	0	0	0	0	0	502.474	-0.899966	-0.900611	-3.55652	-0.669575	-0.669575	11	-0.185993	0	0.185993	0.000000000000000E+000	0.185993	0.0000000E+000	0.000000000000000E+000	0.00320304
2	0	0	0	0	0	0	507.074	-0.899966	-0.900305	-3.55743	-0.685946	-0.685946	11	-0.190541	0	0.190541	0.000000000000000E+000	0.190541	0.0000000E+000	0.000000000000000E+000	0.00320277
2	0	0	0	0	0	0	511.674	-0.899966	-0.900458	-3.55663	-0.702299	-0.702299	11	-0.195083	0	0.195083	0.000000000000000E+000	0.195083	0.0000000E+000	0.000000000000000E+000	0.0032026
2	0	0	0	0	0	0	516.274	-0.899966	-0.900573	-3.54682	-0.718623	-0.718623	11	-0.199618	0	0.199618	0.000000000000000E+000	0.199618	0.0000000E+000	0.000000000000000E+000	0.00319417
2	0	0	0	0	0	0	520.874	-0.899966	-0.900553	-3.60561	-0.73521	-0.73521	11	-0.204225	0	0.204225	0.000000000000000E+000	0.204225	0.0000000E+000	0.000000000000000E+000	0.00324705
2	0	0	0	0	0	0	525.474	-0.899966	-0.900362	-3.58747	-0.751743	-0.751743	11	-0.208818	0	0.208818	0.000000000000000E+000	0.208818	0.0000000E+000	0.000000000000000E+000	0.00323002
2	0	0	0	0	0	0	530.074	-0.899966	-0.90042	-3.58034	-0.768224	-0.768224	11	-0.213396	0	0.213396	0.000000000000000E+000	0.213396	0.0000000E+000	0.000000000000000E+000	0.00322381
2	0	0	0	0	0	0	534.674	-0.899966	-0.900305	-3.491	-0.784642	-0.784642	11	-0.217956	0	0.217956	0.000000000000000E+000	0.217956	0.0000000E+000	0.000000000000000E+000	0.00314296
2	0	0	0	0	0	0	538.378	-0.899966	-0.900362	-3.49506	-0.797629	-0.797629	11	-0.221564	0	0.221564	0.000000000000000E+000	0.221564	0.0000000E+000	0.000000000000000E+000	0.00314682