File: ZnPVAECH_1 04-22-22-Zn -1 PVA ECH 1600 rpm K-L gc3_02_CA_C05.mpt
EC-Lab ASCII FILE
Nb header lines : 63

Chronoamperometry / Chronocoulometry

Run on channel : 5 (SN 6729)
User :
CE vs. WE compliance from -10 V to 10 V
Electrode connection : standard
Potential control : Ewe
Ewe ctrl range : min = -2.50 V, max = 2.50 V
Safety Limits :
	Do not start on E overload
Acquisition started on : 04/04/2022 13:47:44.060
Technique started on : 04/04/2022 13:47:49.208
Loaded Setting File :  NONE
Saved on :
	File : 04-22-22-Zn PVA ECH 1600 rpm K-L gc3_02_CA_C05.mpr
	Directory : \\research-scb.egr.msu.edu\research-scb\Mindy\Koutecky Levich\Zn PVA\ECH\04-04-22\
	Host : 35.9.136.210
Device : VSP (SN 0012)
Address : 35.9.137.65
EC-Lab for windows v11.43 (software)
Internet server v11.40 (firmware)
Command interpretor v11.40 (firmware)
Electrode material : Au/Pd
Initial state :
Electrolyte : NaCl (0.2M)
Comments : Fe(CN)63-/Fe(CN)64- 5.10-3 M
Reference electrode : SCE Saturated Calomel Electrode (0.241 V)
Electrode surface area : 0.196 cm²
Characteristic mass : 0.001 g
Equivalent Weight : 0.000 g/eq.
Density : 0.000 g/cm3
Volume (V) : 0.001 cm³
Cycle Definition : Charge/Discharge alternance
Ei (V)              -1.000
vs.                 Ref
ti (h:m:s)          0:10:0.0000
Imax                pass
unit Imax           mA
Imin                pass
unit Imin           mA
dQM                 0.000
unit dQM            mA.h
record              <I>
dI                  5.000
unit dI             µA
dQ                  0.000
unit dQ             mA.h
dt (s)              0.1000
dta (s)             0.1000
E range min (V)     -2.500
E range max (V)     2.500
I Range             Auto
I Range min         Unset
I Range max         Unset
I Range init        Unset
Bandwidth           5
goto Ns'            0
nc cycles           0

mode	ox/red	error	control changes	Ns changes	counter inc.	Ns	time/s	control/V	Ewe/V	<I>/mA	dQ/C	(Q-Qo)/C	I Range	Q charge/discharge/mA.h	half cycle	Q discharge/mA.h	Q charge/mA.h	Capacity/mA.h	Efficiency/%	cycle number	P/W
2	0	0	0	0	0	0	5.1484	-1.00001	-1.00059	-6.77508	-0.000138825	-0.000138825	11	-3.85626e-05	0	3.85626e-05	0.000000000000000E+000	3.85626e-05	0.0000000E+000	0.000000000000000E+000	0.00677909
2	0	0	0	0	0	0	9.9484	-1.00001	-1.00069	-6.38401	-0.0309853	-0.0309853	11	-0.00860704	0	0.00860704	0.000000000000000E+000	0.00860704	0.0000000E+000	0.000000000000000E+000	0.0063884
2	0	0	0	0	0	0	14.7484	-1.00001	-1.00063	-6.33925	-0.0614986	-0.0614986	11	-0.017083	0	0.017083	0.000000000000000E+000	0.017083	0.0000000E+000	0.000000000000000E+000	0.00634324
2	0	0	0	0	0	0	19.5484	-1.00001	-1.00027	-6.31155	-0.0918558	-0.0918558	11	-0.0255155	0	0.0255155	0.000000000000000E+000	0.0255155	0.0000000E+000	0.000000000000000E+000	0.00631324
2	0	0	0	0	0	0	24.3484	-1.00001	-1.00078	-6.28169	-0.122096	-0.122096	11	-0.0339157	0	0.0339157	0.000000000000000E+000	0.0339157	0.0000000E+000	0.000000000000000E+000	0.00628661
2	0	0	0	0	0	0	29.1484	-1.00001	-1.00044	-6.26124	-0.152222	-0.152222	11	-0.0422838	0	0.0422838	0.000000000000000E+000	0.0422838	0.0000000E+000	0.000000000000000E+000	0.00626399
2	0	0	0	0	0	0	33.9484	-1.00001	-1.00019	-6.25789	-0.18227	-0.18227	11	-0.0506304	0	0.0506304	0.000000000000000E+000	0.0506304	0.0000000E+000	0.000000000000000E+000	0.00625908
2	0	0	0	0	0	0	38.7484	-1.00001	-1.00044	-6.24499	-0.212285	-0.212285	11	-0.058968	0	0.058968	0.000000000000000E+000	0.058968	0.0000000E+000	0.000000000000000E+000	0.00624773
2	0	0	0	0	0	0	43.5484	-1.00001	-1.00057	-6.22251	-0.242194	-0.242194	11	-0.067276	0	0.067276	0.000000000000000E+000	0.067276	0.0000000E+000	0.000000000000000E+000	0.00622607
2	0	0	0	0	0	0	48.3484	-1.00001	-1.00092	-6.19996	-0.272012	-0.272012	11	-0.0755588	0	0.0755588	0.000000000000000E+000	0.0755588	0.0000000E+000	0.000000000000000E+000	0.00620564
2	0	0	0	0	0	0	53.1484	-1.00001	-1.00065	-6.1985	-0.301755	-0.301755	11	-0.0838208	0	0.0838208	0.000000000000000E+000	0.0838208	0.0000000E+000	0.000000000000000E+000	0.00620252
2	0	0	0	0	0	0	57.9484	-1.00001	-1.00076	-6.17097	-0.331441	-0.331441	11	-0.0920668	0	0.0920668	0.000000000000000E+000	0.0920668	0.0000000E+000	0.000000000000000E+000	0.00617568
2	0	0	0	0	0	0	62.7484	-1.00001	-1.00023	-6.14914	-0.36104	-0.36104	11	-0.100289	0	0.100289	0.000000000000000E+000	0.100289	0.0000000E+000	0.000000000000000E+000	0.00615054
2	0	0	0	0	0	0	67.5484	-1.00001	-1.00025	-6.14547	-0.390567	-0.390567	11	-0.108491	0	0.108491	0.000000000000000E+000	0.108491	0.0000000E+000	0.000000000000000E+000	0.006147
2	0	0	0	0	0	0	72.3484	-1.00001	-1.00015	-6.14807	-0.420076	-0.420076	11	-0.116688	0	0.116688	0.000000000000000E+000	0.116688	0.0000000E+000	0.000000000000000E+000	0.00614901
2	0	0	0	0	0	0	77.1484	-1.00001	-1.00027	-5.81859	-0.448818	-0.448818	11	-0.124672	0	0.124672	0.000000000000000E+000	0.124672	0.0000000E+000	0.000000000000000E+000	0.00582015
2	0	0	0	0	0	0	81.9484	-1.00001	-1.00029	-5.81672	-0.476768	-0.476768	11	-0.132435	0	0.132435	0.000000000000000E+000	0.132435	0.0000000E+000	0.000000000000000E+000	0.00581838
2	0	0	0	0	0	0	86.7484	-1.00001	-1.0005	-5.71933	-0.504641	-0.504641	11	-0.140178	0	0.140178	0.000000000000000E+000	0.140178	0.0000000E+000	0.000000000000000E+000	0.00572217
2	0	0	0	0	0	0	91.5484	-1.00001	-1.00038	-5.51711	-0.531161	-0.531161	11	-0.147545	0	0.147545	0.000000000000000E+000	0.147545	0.0000000E+000	0.000000000000000E+000	0.00551922
2	0	0	0	0	0	0	96.3484	-1.00001	-1.00052	-5.51954	-0.557651	-0.557651	11	-0.154903	0	0.154903	0.000000000000000E+000	0.154903	0.0000000E+000	0.000000000000000E+000	0.00552239
2	0	0	0	0	0	0	101.148	-1.00001	-1.00032	-5.51011	-0.584115	-0.584115	11	-0.162254	0	0.162254	0.000000000000000E+000	0.162254	0.0000000E+000	0.000000000000000E+000	0.0055119
2	0	0	0	0	0	0	105.948	-1.00001	-1.00042	-5.50517	-0.610544	-0.610544	11	-0.169596	0	0.169596	0.000000000000000E+000	0.169596	0.0000000E+000	0.000000000000000E+000	0.00550748
2	0	0	0	0	0	0	110.748	-1.00001	-1.00048	-4.7578	-0.63414	-0.63414	11	-0.17615	0	0.17615	0.000000000000000E+000	0.17615	0.0000000E+000	0.000000000000000E+000	0.00476007
2	0	0	0	0	0	0	115.548	-1.00001	-1.00044	-4.76917	-0.657012	-0.657012	11	-0.182503	0	0.182503	0.000000000000000E+000	0.182503	0.0000000E+000	0.000000000000000E+000	0.00477127
2	0	0	0	0	0	0	120.348	-1.00001	-1.0004	-4.75098	-0.679855	-0.679855	11	-0.188849	0	0.188849	0.000000000000000E+000	0.188849	0.0000000E+000	0.000000000000000E+000	0.00475289
2	0	0	0	0	0	0	125.148	-1.00001	-1.00032	-4.12648	-0.701188	-0.701188	11	-0.194774	0	0.194774	0.000000000000000E+000	0.194774	0.0000000E+000	0.000000000000000E+000	0.00412782
2	0	0	0	0	0	0	129.948	-1.00001	-1.00042	-4.13195	-0.720997	-0.720997	11	-0.200277	0	0.200277	0.000000000000000E+000	0.200277	0.0000000E+000	0.000000000000000E+000	0.00413369
2	0	0	0	0	0	0	134.748	-1.00001	-1.00017	-4.10972	-0.740773	-0.740773	11	-0.20577	0	0.20577	0.000000000000000E+000	0.20577	0.0000000E+000	0.000000000000000E+000	0.00411042
2	0	0	0	0	0	0	139.548	-1.00001	-1.00029	-3.37131	-0.757794	-0.757794	11	-0.210498	0	0.210498	0.000000000000000E+000	0.210498	0.0000000E+000	0.000000000000000E+000	0.00337227
2	0	0	0	0	0	0	144.348	-1.00001	-1.00034	-3.37057	-0.773975	-0.773975	11	-0.214993	0	0.214993	0.000000000000000E+000	0.214993	0.0000000E+000	0.000000000000000E+000	0.00337173
2	0	0	0	0	0	0	149.148	-1.00001	-1.00052	-2.86113	-0.78909	-0.78909	11	-0.219192	0	0.219192	0.000000000000000E+000	0.219192	0.0000000E+000	0.000000000000000E+000	0.00286261
2	0	0	0	0	0	0	153.948	-1.00001	-1.00034	-2.86053	-0.802826	-0.802826	11	-0.223007	0	0.223007	0.000000000000000E+000	0.223007	0.0000000E+000	0.000000000000000E+000	0.00286152
2	0	0	0	0	0	0	158.748	-1.00001	-1.00029	-2.79282	-0.816562	-0.816562	11	-0.226823	0	0.226823	0.000000000000000E+000	0.226823	0.0000000E+000	0.000000000000000E+000	0.00279362
2	0	0	0	0	0	0	163.548	-1.00001	-1.00025	-1.77594	-0.825861	-0.825861	11	-0.229406	0	0.229406	0.000000000000000E+000	0.229406	0.0000000E+000	0.000000000000000E+000	0.00177638
2	0	0	0	0	0	0	168.348	-1.00001	-1.00036	-2.17157	-0.835251	-0.835251	11	-0.232014	0	0.232014	0.000000000000000E+000	0.232014	0.0000000E+000	0.000000000000000E+000	0.00217236
2	0	0	0	0	0	0	173.148	-1.00001	-1.00032	-2.3208	-0.845818	-0.845818	11	-0.234949	0	0.234949	0.000000000000000E+000	0.234949	0.0000000E+000	0.000000000000000E+000	0.00232155
2	0	0	0	0	0	0	177.948	-1.00001	-1.00034	-2.53413	-0.857513	-0.857513	11	-0.238198	0	0.238198	0.000000000000000E+000	0.238198	0.0000000E+000	0.000000000000000E+000	0.002535
2	0	0	0	0	0	0	182.748	-1.00001	-1.00046	-2.54325	-0.869712	-0.869712	11	-0.241587	0	0.241587	0.000000000000000E+000	0.241587	0.0000000E+000	0.000000000000000E+000	0.00254441
2	0	0	0	0	0	0	187.548	-1.00001	-1.00029	-2.99648	-0.881979	-0.881979	11	-0.244994	0	0.244994	0.000000000000000E+000	0.244994	0.0000000E+000	0.000000000000000E+000	0.00299734
2	0	0	0	0	0	0	192.348	-1.00001	-1.00025	-3.35016	-0.898265	-0.898265	11	-0.249518	0	0.249518	0.000000000000000E+000	0.249518	0.0000000E+000	0.000000000000000E+000	0.00335099
2	0	0	0	0	0	0	197.148	-1.00001	-1.00034	-2.918	-0.913993	-0.913993	11	-0.253887	0	0.253887	0.000000000000000E+000	0.253887	0.0000000E+000	0.000000000000000E+000	0.00291901
2	0	0	0	0	0	0	201.948	-1.00001	-1.00036	-2.85258	-0.927736	-0.927736	11	-0.257704	0	0.257704	0.000000000000000E+000	0.257704	0.0000000E+000	0.000000000000000E+000	0.00285361
2	0	0	0	0	0	0	206.748	-1.00001	-1.00027	-3.3404	-0.942062	-0.942062	11	-0.261684	0	0.261684	0.000000000000000E+000	0.261684	0.0000000E+000	0.000000000000000E+000	0.00334129
2	0	0	0	0	0	0	211.548	-1.00001	-1.00044	-3.35721	-0.958202	-0.958202	11	-0.266167	0	0.266167	0.000000000000000E+000	0.266167	0.0000000E+000	0.000000000000000E+000	0.00335869
2	0	0	0	0	0	0	216.348	-1.00001	-1.0004	-4.0883	-0.976675	-0.976675	11	-0.271299	0	0.271299	0.000000000000000E+000	0.271299	0.0000000E+000	0.000000000000000E+000	0.00408994
2	0	0	0	0	0	0	221.148	-1.00001	-1.00032	-4.10898	-0.996317	-0.996317	11	-0.276755	0	0.276755	0.000000000000000E+000	0.276755	0.0000000E+000	0.000000000000000E+000	0.00411032
2	0	0	0	0	0	0	225.948	-1.00001	-1.00023	-4.67442	-1.01746	-1.01746	11	-0.282626	0	0.282626	0.000000000000000E+000	0.282626	0.0000000E+000	0.000000000000000E+000	0.00467549
2	0	0	0	0	0	0	230.748	-1.00001	-1.00048	-5.22364	-1.04014	-1.04014	11	-0.288928	0	0.288928	0.000000000000000E+000	0.288928	0.0000000E+000	0.000000000000000E+000	0.00522613
2	0	0	0	0	0	0	235.548	-1.00001	-1.00052	-5.38924	-1.06602	-1.06602	11	-0.296116	0	0.296116	0.000000000000000E+000	0.296116	0.0000000E+000	0.000000000000000E+000	0.00539202
2	0	0	0	0	0	0	240.348	-1.00001	-1.00008	-5.39701	-1.0919	-1.0919	11	-0.303307	0	0.303307	0.000000000000000E+000	0.303307	0.0000000E+000	0.000000000000000E+000	0.00539742
2	0	0	0	0	0	0	245.148	-1.00001	-1.00067	-5.6544	-1.11865	-1.11865	11	-0.310736	0	0.310736	0.000000000000000E+000	0.310736	0.0000000E+000	0.000000000000000E+000	0.00565817
2	0	0	0	0	0	0	249.948	-1.00001	-1.00031	-5.6501	-1.14574	-1.14574	11	-0.31826	0	0.31826	0.000000000000000E+000	0.31826	0.0000000E+000	0.000000000000000E+000	0.00565183
2	0	0	0	0	0	0	254.748	-1.00001	-1.0005	-5.6318	-1.17281	-1.17281	11	-0.32578	0	0.32578	0.000000000000000E+000	0.32578	0.0000000E+000	0.000000000000000E+000	0.00563459
2	0	0	0	0	0	0	259.548	-1.00001	-1.00074	-5.92492	-1.20074	-1.20074	11	-0.333538	0	0.333538	0.000000000000000E+000	0.333538	0.0000000E+000	0.000000000000000E+000	0.00592933
2	0	0	0	0	0	0	264.348	-1.00001	-1.00046	-5.91628	-1.2291	-1.2291	11	-0.341417	0	0.341417	0.000000000000000E+000	0.341417	0.0000000E+000	0.000000000000000E+000	0.00591899
2	0	0	0	0	0	0	269.148	-1.00001	-1.00038	-5.90259	-1.25745	-1.25745	11	-0.349293	0	0.349293	0.000000000000000E+000	0.349293	0.0000000E+000	0.000000000000000E+000	0.00590485
2	0	0	0	0	0	0	273.948	-1.00001	-1.00061	-5.89126	-1.28574	-1.28574	11	-0.357151	0	0.357151	0.000000000000000E+000	0.357151	0.0000000E+000	0.000000000000000E+000	0.00589486
2	0	0	0	0	0	0	278.748	-1.00001	-1.0001	-5.88392	-1.314	-1.314	11	-0.364999	0	0.364999	0.000000000000000E+000	0.364999	0.0000000E+000	0.000000000000000E+000	0.00588448
2	0	0	0	0	0	0	281.476	-1.00001	-0.999866	-5.89093	-1.33004	-1.33004	11	-0.369456	0	0.369456	0.000000000000000E+000	0.369456	0.0000000E+000	0.000000000000000E+000	0.00589014