File: ZnPVAECH_08 RDE 3 ECH 1600 rpm K-L.mpt
EC-Lab ASCII FILE
Nb header lines : 81

Chronoamperometry / Chronocoulometry

Run on channel : 5 (SN 6729)
User :
CE vs. WE compliance from -10 V to 10 V
Electrode connection : standard
Ewe ctrl range : min = -2.50 V, max = 2.50 V
Safety Limits :
	Do not start on E overload
Acquisition started on : 03/10/2022 15:06:41.638
Technique started on : 03/10/2022 15:06:41.738
Loaded Setting File :  NONE
Saved on :
	File : 03-10-22-GC ECH K-L 100 to 1600 rpm at -0_8V vs RHE RDE3_C05.mpr
	Directory : G:\Mindy\Koutecky Levich\Zn PVA\ECH\03-10-22\
	Host : 35.9.136.176
Device : VSP (SN 0012)
Address : 35.9.137.65
EC-Lab for windows v11.36 (software)
Internet server v11.36 (firmware)
Command interpretor v11.36 (firmware)
Electrode material : Au/Pd
Initial state :
Electrolyte : NaCl (0.2M)
Comments : Fe(CN)63-/Fe(CN)64- 5.10-3 M
Reference electrode : SCE Saturated Calomel Electrode (0.241 V)
Electrode surface area : 0.196 cm²
Characteristic mass : 0.001 g
Equivalent Weight : 0.000 g/eq.
Density : 0.000 g/cm3
Record Analogic IN 1
Cycle Definition : Charge/Discharge alternance
External device configuration :
   device type : RDE
   device name : BluRev RDE
   Analog OUT :
      mode : E/V
      unit : speed/rpm
      max : 10000.000 at 10.000 V
      min : 0.000 at 0.000 V
      current : 1600.000
   Analog IN 1 :
      unit : speed/rpm
      max : 10000.000 at 10.000 V
      min : 0.000 at 0.000 V
Ei (V)              -0.780
vs.                 Ref
ti (h:m:s)          0:30:0.0000
Imax                pass
unit Imax           mA
Imin                pass
unit Imin           mA
dQM                 0.000
unit dQM            mA.h
record              <I>
dI                  5.000
unit dI             µA
dQ                  0.000
unit dQ             mA.h
dt (s)              0.1000
dta (s)             0.1000
E range min (V)     -2.500
E range max (V)     2.500
I Range             Auto
I Range min         Unset
I Range max         Unset
I Range init        Unset
Bandwidth           5
goto Ns'            0
nc cycles           0

Modify on : 03/10/2022 15:06
Ei (V)              -0.760

Modify on : 03/10/2022 15:07
Ei (V)              -0.770

mode	ox/red	error	control changes	Ns changes	counter inc.	Ns	time/s	control/V	Ewe/V	<I>/mA	dQ/C	(Q-Qo)/C	I Range	Q charge/discharge/mA.h	half cycle	Analog IN 1/V	Analog OUT/V	Q discharge/mA.h	Q charge/mA.h	Capacity/mA.h	Efficiency/%	cycle number	P/W
2	0	0	0	0	0	0	0.1	-0.780006	-0.780546	-4.08206	-0.000116722	-0.000116722	11	-3.24227e-05	0	-0.216629	1600	3.24227e-05	0.000000000000000E+000	3.24227e-05	0.0000000E+000	0.000000000000000E+000	0.00318623
2	0	0	0	0	0	0	3.9	-0.780006	-0.78047	-3.86329	-0.0148851	-0.0148851	11	-0.00413475	0	-0.254813	1600	0.00413475	0.000000000000000E+000	0.00413475	0.0000000E+000	0.000000000000000E+000	0.00301518
2	0	0	0	0	0	0	7.7	-0.780006	-0.780336	-3.83627	-0.029509	-0.029509	11	-0.00819695	0	-0.159353	1600	0.00819695	0.000000000000000E+000	0.00819695	0.0000000E+000	0.000000000000000E+000	0.00299358
2	0	0	0	0	0	0	11.5	-0.780006	-0.780336	-3.82287	-0.0440687	-0.0440687	11	-0.0122413	0	-0.121168	1600	0.0122413	0.000000000000000E+000	0.0122413	0.0000000E+000	0.000000000000000E+000	0.00298312
2	0	0	0	0	0	0	15.3	-0.780006	-0.780317	-3.80923	-0.0585652	-0.0585652	11	-0.0162681	0	-0.197537	1600	0.0162681	0.000000000000000E+000	0.0162681	0.0000000E+000	0.000000000000000E+000	0.00297241
2	0	0	1	0	0	0	19.1	-0.759997	-0.760348	-3.21858	-0.0711079	-0.0711079	11	-0.0197522	0	-0.292998	1600	0.0197522	0.000000000000000E+000	0.0197522	0.0000000E+000	0.000000000000000E+000	0.00244724
2	0	0	1	0	0	0	22.9	-0.759997	-0.760329	-3.20447	-0.0833092	-0.0833092	11	-0.0231414	0	-0.216629	1600	0.0231414	0.000000000000000E+000	0.0231414	0.0000000E+000	0.000000000000000E+000	0.00243645
2	0	0	0	0	0	0	26.7	-0.770002	-0.770447	-3.4694	-0.0956387	-0.0956387	11	-0.0265663	0	-0.159353	1600	0.0265663	0.000000000000000E+000	0.0265663	0.0000000E+000	0.000000000000000E+000	0.00267299
2	0	0	0	0	0	0	30.5	-0.770002	-0.770294	-3.45594	-0.1088	-0.1088	11	-0.0302221	0	-0.292998	1600	0.0302221	0.000000000000000E+000	0.0302221	0.0000000E+000	0.000000000000000E+000	0.00266209
2	0	0	0	0	0	0	34.3	-0.770002	-0.770409	-3.44547	-0.121909	-0.121909	11	-0.0338636	0	-0.216629	1600	0.0338636	0.000000000000000E+000	0.0338636	0.0000000E+000	0.000000000000000E+000	0.00265442
2	0	0	0	0	0	0	38.1	-0.770002	-0.770409	-3.43153	-0.134969	-0.134969	11	-0.0374915	0	-0.14026	1600	0.0374915	0.000000000000000E+000	0.0374915	0.0000000E+000	0.000000000000000E+000	0.00264368
2	0	0	0	0	0	0	41.9	-0.770002	-0.770466	-3.22918	-0.147751	-0.147751	11	-0.0410419	0	-0.254813	1600	0.0410419	0.000000000000000E+000	0.0410419	0.0000000E+000	0.000000000000000E+000	0.00248798
2	0	0	0	0	0	0	45.7	-0.770002	-0.770466	-3.23543	-0.160071	-0.160071	11	-0.0444642	0	-0.159353	1600	0.0444642	0.000000000000000E+000	0.0444642	0.0000000E+000	0.000000000000000E+000	0.00249279
2	0	0	0	0	0	0	49.5	-0.770002	-0.770314	-3.22486	-0.172357	-0.172357	11	-0.0478768	0	-0.31209	1600	0.0478768	0.000000000000000E+000	0.0478768	0.0000000E+000	0.000000000000000E+000	0.00248416
2	0	0	0	0	0	0	53.3	-0.770002	-0.770485	-3.22067	-0.184604	-0.184604	11	-0.0512789	0	-0.159353	1600	0.0512789	0.000000000000000E+000	0.0512789	0.0000000E+000	0.000000000000000E+000	0.00248148
2	0	0	0	0	0	0	57.1	-0.770002	-0.77039	-3.08011	-0.196472	-0.196472	11	-0.0545757	0	-0.178445	1600	0.0545757	0.000000000000000E+000	0.0545757	0.0000000E+000	0.000000000000000E+000	0.00237288
2	0	0	0	0	0	0	60.9	-0.770002	-0.770485	-3.06695	-0.208153	-0.208153	11	-0.0578202	0	-0.178445	1600	0.0578202	0.000000000000000E+000	0.0578202	0.0000000E+000	0.000000000000000E+000	0.00236304
2	0	0	0	0	0	0	64.7	-0.770002	-0.770314	-2.92243	-0.219719	-0.219719	11	-0.061033	0	-0.216629	1600	0.061033	0.000000000000000E+000	0.061033	0.0000000E+000	0.000000000000000E+000	0.00225119
2	0	0	0	0	0	0	68.5	-0.770002	-0.770371	-2.86001	-0.230646	-0.230646	11	-0.0640684	0	-0.178445	1600	0.0640684	0.000000000000000E+000	0.0640684	0.0000000E+000	0.000000000000000E+000	0.00220327
2	0	0	0	0	0	0	72.3	-0.770002	-0.770409	-2.85954	-0.241517	-0.241517	11	-0.067088	0	-0.197537	1600	0.067088	0.000000000000000E+000	0.067088	0.0000000E+000	0.000000000000000E+000	0.00220301
2	0	0	0	0	0	0	76.1	-0.770002	-0.770333	-2.85226	-0.252357	-0.252357	11	-0.0700993	0	-0.235721	1600	0.0700993	0.000000000000000E+000	0.0700993	0.0000000E+000	0.000000000000000E+000	0.00219719
2	0	0	0	0	0	0	79.9	-0.770002	-0.770275	-2.83642	-0.263166	-0.263166	11	-0.0731018	0	-0.197537	1600	0.0731018	0.000000000000000E+000	0.0731018	0.0000000E+000	0.000000000000000E+000	0.00218483
2	0	0	0	0	0	0	83.7	-0.770002	-0.770333	-2.74433	-0.273627	-0.273627	11	-0.0760074	0	-0.254813	1600	0.0760074	0.000000000000000E+000	0.0760074	0.0000000E+000	0.000000000000000E+000	0.00211405
2	0	0	0	0	0	0	87.5	-0.770002	-0.770466	-2.7437	-0.284048	-0.284048	11	-0.0789023	0	-0.159353	1600	0.0789023	0.000000000000000E+000	0.0789023	0.0000000E+000	0.000000000000000E+000	0.00211393
2	0	0	0	0	0	0	91.3	-0.770002	-0.770294	-2.73586	-0.294443	-0.294443	11	-0.0817896	0	-0.254813	1600	0.0817896	0.000000000000000E+000	0.0817896	0.0000000E+000	0.000000000000000E+000	0.00210742
2	0	0	0	0	0	0	95.1	-0.770002	-0.770237	-2.73136	-0.304818	-0.304818	11	-0.0846717	0	-0.197537	1600	0.0846717	0.000000000000000E+000	0.0846717	0.0000000E+000	0.000000000000000E+000	0.0021038
2	0	0	0	0	0	0	98.9	-0.770002	-0.770352	-2.51372	-0.314814	-0.314814	11	-0.0874485	0	-0.178445	1600	0.0874485	0.000000000000000E+000	0.0874485	0.0000000E+000	0.000000000000000E+000	0.00193645
2	0	0	0	0	0	0	102.7	-0.770002	-0.770485	-2.50638	-0.32436	-0.32436	11	-0.0901001	0	-0.159353	1600	0.0901001	0.000000000000000E+000	0.0901001	0.0000000E+000	0.000000000000000E+000	0.00193113
2	0	0	0	0	0	0	106.5	-0.770002	-0.770447	-2.50556	-0.33389	-0.33389	11	-0.0927471	0	-0.273906	1600	0.0927471	0.000000000000000E+000	0.0927471	0.0000000E+000	0.000000000000000E+000	0.0019304
2	0	0	0	0	0	0	110.3	-0.770002	-0.770294	-2.15495	-0.34307	-0.34307	11	-0.0952973	0	-0.14026	1600	0.0952973	0.000000000000000E+000	0.0952973	0.0000000E+000	0.000000000000000E+000	0.00165995
2	0	0	0	0	0	0	114.1	-0.770002	-0.770256	-2.0308	-0.350878	-0.350878	11	-0.0974662	0	-0.235721	1600	0.0974662	0.000000000000000E+000	0.0974662	0.0000000E+000	0.000000000000000E+000	0.00156424
2	0	0	0	0	0	0	117.9	-0.770002	-0.77039	-2.02116	-0.358572	-0.358572	11	-0.0996034	0	-0.0829839	1600	0.0996034	0.000000000000000E+000	0.0996034	0.0000000E+000	0.000000000000000E+000	0.00155708
2	0	0	0	0	0	0	121.7	-0.770002	-0.77039	-2.01735	-0.366258	-0.366258	11	-0.101738	0	-0.235721	1600	0.101738	0.000000000000000E+000	0.101738	0.0000000E+000	0.000000000000000E+000	0.00155415
2	0	0	0	0	0	0	125.5	-0.770002	-0.770371	-2.21032	-0.374268	-0.374268	11	-0.103963	0	-0.178445	1600	0.103963	0.000000000000000E+000	0.103963	0.0000000E+000	0.000000000000000E+000	0.00170277
2	0	0	0	0	0	0	129.3	-0.770002	-0.77039	-2.22193	-0.382699	-0.382699	11	-0.106305	0	-0.159353	1600	0.106305	0.000000000000000E+000	0.106305	0.0000000E+000	0.000000000000000E+000	0.00171175
2	0	0	0	0	0	0	133.1	-0.770002	-0.770352	-2.21607	-0.39112	-0.39112	11	-0.108644	0	-0.159353	1600	0.108644	0.000000000000000E+000	0.108644	0.0000000E+000	0.000000000000000E+000	0.00170715
2	0	0	0	0	0	0	136.9	-0.770002	-0.770409	-2.4618	-0.40034	-0.40034	11	-0.111205	0	-0.159353	1600	0.111205	0.000000000000000E+000	0.111205	0.0000000E+000	0.000000000000000E+000	0.00189659
2	0	0	0	0	0	0	140.7	-0.770002	-0.770543	-2.45638	-0.409701	-0.409701	11	-0.113806	0	-0.235721	1600	0.113806	0.000000000000000E+000	0.113806	0.0000000E+000	0.000000000000000E+000	0.00189275
2	0	0	0	0	0	0	144.5	-0.770002	-0.770294	-2.45715	-0.419053	-0.419053	11	-0.116404	0	-0.14026	1600	0.116404	0.000000000000000E+000	0.116404	0.0000000E+000	0.000000000000000E+000	0.00189273
2	0	0	0	0	0	0	148.3	-0.770002	-0.770333	-2.65536	-0.428937	-0.428937	11	-0.119149	0	-0.178445	1600	0.119149	0.000000000000000E+000	0.119149	0.0000000E+000	0.000000000000000E+000	0.00204551
2	0	0	0	0	0	0	152.1	-0.770002	-0.770333	-2.65346	-0.438994	-0.438994	11	-0.121943	0	-0.216629	1600	0.121943	0.000000000000000E+000	0.121943	0.0000000E+000	0.000000000000000E+000	0.00204405
2	0	0	0	0	0	0	155.9	-0.770002	-0.770409	-2.88701	-0.449194	-0.449194	11	-0.124776	0	-0.178445	1600	0.124776	0.000000000000000E+000	0.124776	0.0000000E+000	0.000000000000000E+000	0.00222418
2	0	0	0	0	0	0	159.7	-0.770002	-0.770409	-2.88691	-0.460172	-0.460172	11	-0.127825	0	-0.102076	1600	0.127825	0.000000000000000E+000	0.127825	0.0000000E+000	0.000000000000000E+000	0.0022241
2	0	0	0	0	0	0	163.5	-0.770002	-0.770524	-2.87663	-0.471121	-0.471121	11	-0.130867	0	-0.216629	1600	0.130867	0.000000000000000E+000	0.130867	0.0000000E+000	0.000000000000000E+000	0.00221651
2	0	0	0	0	0	0	167.3	-0.770002	-0.77039	-2.87489	-0.482044	-0.482044	11	-0.133901	0	-0.0829839	1600	0.133901	0.000000000000000E+000	0.133901	0.0000000E+000	0.000000000000000E+000	0.00221478
2	0	0	0	0	0	0	171.1	-0.770002	-0.770466	-2.98568	-0.493083	-0.493083	11	-0.136967	0	-0.31209	1600	0.136967	0.000000000000000E+000	0.136967	0.0000000E+000	0.000000000000000E+000	0.00230036
2	0	0	0	0	0	0	174.9	-0.770002	-0.770409	-2.98263	-0.504415	-0.504415	11	-0.140115	0	-0.254813	1600	0.140115	0.000000000000000E+000	0.140115	0.0000000E+000	0.000000000000000E+000	0.00229785
2	0	0	0	0	0	0	178.7	-0.770002	-0.770466	-2.97378	-0.51572	-0.51572	11	-0.143255	0	-0.159353	1600	0.143255	0.000000000000000E+000	0.143255	0.0000000E+000	0.000000000000000E+000	0.0022912
2	0	0	0	0	0	0	182.5	-0.770002	-0.770275	-3.14432	-0.52706	-0.52706	11	-0.146405	0	-0.102076	1600	0.146405	0.000000000000000E+000	0.146405	0.0000000E+000	0.000000000000000E+000	0.002422
2	0	0	0	0	0	0	186.3	-0.770002	-0.770275	-3.10411	-0.538889	-0.538889	11	-0.149691	0	-0.254813	1600	0.149691	0.000000000000000E+000	0.149691	0.0000000E+000	0.000000000000000E+000	0.00239102
2	0	0	0	0	0	0	190.1	-0.770002	-0.770314	-3.10106	-0.550674	-0.550674	11	-0.152965	0	-0.197537	1600	0.152965	0.000000000000000E+000	0.152965	0.0000000E+000	0.000000000000000E+000	0.00238879
2	0	0	0	0	0	0	193.9	-0.770002	-0.770333	-3.09268	-0.562443	-0.562443	11	-0.156234	0	-0.216629	1600	0.156234	0.000000000000000E+000	0.156234	0.0000000E+000	0.000000000000000E+000	0.00238239
2	0	0	0	0	0	0	195.572	-0.770002	-0.770447	-3.09288	-0.567615	-0.567615	11	-0.157671	0	-0.350274	1600	0.157671	0.000000000000000E+000	0.157671	INF	0.000000000000000E+000	0.0023829