File: ZnPVAECH_07 04-22-22-Zn -07 PVA ECH 1600 rpm K-L gc4_03_CA_C05(1).mpt
EC-Lab ASCII FILE
Nb header lines : 66

Chronoamperometry / Chronocoulometry

Run on channel : 5 (SN 6729)
User :
CE vs. WE compliance from -10 V to 10 V
Electrode connection : standard
Potential control : Ewe
Ewe ctrl range : min = -2.50 V, max = 2.50 V
Safety Limits :
	Do not start on E overload
Acquisition started on : 04/04/2022 16:58:56.968
Technique started on : 04/04/2022 17:00:00.629
Loaded Setting File :  NONE
Saved on :
	File : 04-22-22-Zn PVA ECH 1600 rpm K-L gc4_03_CA_C05.mpr
	Directory : \\research-scb.egr.msu.edu\research-scb\Mindy\Koutecky Levich\Zn PVA\ECH\04-04-22\
	Host : 35.9.136.210
Device : VSP (SN 0012)
Address : 35.9.137.65
EC-Lab for windows v11.43 (software)
Internet server v11.40 (firmware)
Command interpretor v11.40 (firmware)
Electrode material : Au/Pd
Initial state :
Electrolyte : NaCl (0.2M)
Comments : Fe(CN)63-/Fe(CN)64- 5.10-3 M
Reference electrode : SCE Saturated Calomel Electrode (0.241 V)
Electrode surface area : 0.196 cm²
Characteristic mass : 0.001 g
Equivalent Weight : 0.000 g/eq.
Density : 0.000 g/cm3
Volume (V) : 0.001 cm³
Cycle Definition : Charge/Discharge alternance
Ei (V)              -0.800
vs.                 Ref
ti (h:m:s)          0:10:0.0000
Imax                pass
unit Imax           mA
Imin                pass
unit Imin           mA
dQM                 0.000
unit dQM            mA.h
record              <I>
dI                  5.000
unit dI             µA
dQ                  0.000
unit dQ             mA.h
dt (s)              0.1000
dta (s)             0.1000
E range min (V)     -2.500
E range max (V)     2.500
I Range             Auto
I Range min         Unset
I Range max         Unset
I Range init        Unset
Bandwidth           5
goto Ns'            0
nc cycles           0

Modify on : 04/04/2022 17:00
Ei (V)              -0.830

mode	ox/red	error	control changes	Ns changes	counter inc.	Ns	time/s	control/V	Ewe/V	<I>/mA	dQ/C	(Q-Qo)/C	I Range	Q charge/discharge/mA.h	half cycle	Q discharge/mA.h	Q charge/mA.h	Capacity/mA.h	Efficiency/%	cycle number	P/W
2	0	0	0	0	0	0	63.6612	-0.830035	-0.830469	-1.64581	-7.2126e-05	-7.2126e-05	11	-2.0035e-05	0	2.0035e-05	0.000000000000000E+000	2.0035e-05	0.0000000E+000	0.000000000000000E+000	0.00136679
2	0	0	0	0	0	0	66.1612	-0.830035	-0.830488	-1.62044	-0.00412505	-0.00412505	11	-0.00114585	0	0.00114585	0.000000000000000E+000	0.00114585	0.0000000E+000	0.000000000000000E+000	0.00134576
2	0	0	0	0	0	0	68.6612	-0.830035	-0.830603	-1.61702	-0.00817014	-0.00817014	11	-0.00226948	0	0.00226948	0.000000000000000E+000	0.00226948	0.0000000E+000	0.000000000000000E+000	0.0013431
2	0	0	0	0	0	0	71.1612	-0.830035	-0.83045	-1.55913	-0.0121583	-0.0121583	11	-0.00337731	0	0.00337731	0.000000000000000E+000	0.00337731	0.0000000E+000	0.000000000000000E+000	0.00129478
2	0	0	0	0	0	0	73.6612	-0.830035	-0.830431	-1.5721	-0.0160842	-0.0160842	11	-0.00446784	0	0.00446784	0.000000000000000E+000	0.00446784	0.0000000E+000	0.000000000000000E+000	0.00130552
2	0	0	0	0	0	0	76.1612	-0.830035	-0.830412	-1.5702	-0.0200121	-0.0200121	11	-0.00555892	0	0.00555892	0.000000000000000E+000	0.00555892	0.0000000E+000	0.000000000000000E+000	0.00130391
2	0	0	0	0	0	0	78.6612	-0.830035	-0.830546	-1.53501	-0.0238794	-0.0238794	11	-0.00663316	0	0.00663316	0.000000000000000E+000	0.00663316	0.0000000E+000	0.000000000000000E+000	0.00127489
2	0	0	0	0	0	0	81.1612	-0.830035	-0.830488	-1.53704	-0.0277213	-0.0277213	11	-0.00770035	0	0.00770035	0.000000000000000E+000	0.00770035	0.0000000E+000	0.000000000000000E+000	0.0012765
2	0	0	0	0	0	0	83.6612	-0.830035	-0.830508	-1.53763	-0.0315629	-0.0315629	11	-0.00876748	0	0.00876748	0.000000000000000E+000	0.00876748	0.0000000E+000	0.000000000000000E+000	0.00127701
2	0	0	0	0	0	0	86.1612	-0.830035	-0.83045	-1.53634	-0.0354041	-0.0354041	11	-0.00983448	0	0.00983448	0.000000000000000E+000	0.00983448	0.0000000E+000	0.000000000000000E+000	0.00127585
2	0	0	0	0	0	0	88.6612	-0.830035	-0.830469	-1.45413	-0.0391586	-0.0391586	11	-0.0108774	0	0.0108774	0.000000000000000E+000	0.0108774	0.0000000E+000	0.000000000000000E+000	0.00120761
2	0	0	0	0	0	0	91.1612	-0.830035	-0.83045	-1.4525	-0.0427964	-0.0427964	11	-0.0118879	0	0.0118879	0.000000000000000E+000	0.0118879	0.0000000E+000	0.000000000000000E+000	0.00120623
2	0	0	0	0	0	0	93.6612	-0.830035	-0.830431	-1.45751	-0.0464331	-0.0464331	11	-0.0128981	0	0.0128981	0.000000000000000E+000	0.0128981	0.0000000E+000	0.000000000000000E+000	0.00121036
2	0	0	0	0	0	0	96.1612	-0.830035	-0.830584	-1.45693	-0.0500709	-0.0500709	11	-0.0139086	0	0.0139086	0.000000000000000E+000	0.0139086	0.0000000E+000	0.000000000000000E+000	0.00121011
2	0	0	0	0	0	0	98.6612	-0.830035	-0.83045	-1.3859	-0.0536012	-0.0536012	11	-0.0148892	0	0.0148892	0.000000000000000E+000	0.0148892	0.0000000E+000	0.000000000000000E+000	0.00115092
2	0	0	0	0	0	0	101.161	-0.830035	-0.830412	-1.38797	-0.0570743	-0.0570743	11	-0.015854	0	0.015854	0.000000000000000E+000	0.015854	0.0000000E+000	0.000000000000000E+000	0.00115259
2	0	0	0	0	0	0	103.661	-0.830035	-0.830469	-1.39314	-0.0605468	-0.0605468	11	-0.0168186	0	0.0168186	0.000000000000000E+000	0.0168186	0.0000000E+000	0.000000000000000E+000	0.00115696
2	0	0	0	0	0	0	106.161	-0.830035	-0.830488	-1.3214	-0.0639882	-0.0639882	11	-0.0177745	0	0.0177745	0.000000000000000E+000	0.0177745	0.0000000E+000	0.000000000000000E+000	0.00109741
2	0	0	0	0	0	0	108.661	-0.830035	-0.830412	-1.29794	-0.0672589	-0.0672589	11	-0.018683	0	0.018683	0.000000000000000E+000	0.018683	0.0000000E+000	0.000000000000000E+000	0.00107782
2	0	0	0	0	0	0	111.161	-0.830035	-0.830412	-1.29834	-0.0705057	-0.0705057	11	-0.0195849	0	0.0195849	0.000000000000000E+000	0.0195849	0.0000000E+000	0.000000000000000E+000	0.00107816
2	0	0	0	0	0	0	113.661	-0.830035	-0.83045	-1.30092	-0.0737547	-0.0737547	11	-0.0204874	0	0.0204874	0.000000000000000E+000	0.0204874	0.0000000E+000	0.000000000000000E+000	0.00108035
2	0	0	0	0	0	0	116.161	-0.830035	-0.830546	-1.30271	-0.0770041	-0.0770041	11	-0.02139	0	0.02139	0.000000000000000E+000	0.02139	0.0000000E+000	0.000000000000000E+000	0.00108196
2	0	0	0	0	0	0	118.661	-0.830035	-0.830469	-1.24099	-0.0801926	-0.0801926	11	-0.0222757	0	0.0222757	0.000000000000000E+000	0.0222757	0.0000000E+000	0.000000000000000E+000	0.0010306
2	0	0	0	0	0	0	121.161	-0.830035	-0.830546	-1.22206	-0.0832638	-0.0832638	11	-0.0231288	0	0.0231288	0.000000000000000E+000	0.0231288	0.0000000E+000	0.000000000000000E+000	0.00101497
2	0	0	0	0	0	0	123.661	-0.830035	-0.830469	-1.21495	-0.0863176	-0.0863176	11	-0.0239771	0	0.0239771	0.000000000000000E+000	0.0239771	0.0000000E+000	0.000000000000000E+000	0.00100898
2	0	0	0	0	0	0	126.161	-0.830035	-0.83045	-1.22048	-0.089371	-0.089371	11	-0.0248253	0	0.0248253	0.000000000000000E+000	0.0248253	0.0000000E+000	0.000000000000000E+000	0.00101355
2	0	0	0	0	0	0	128.661	-0.830035	-0.830355	-1.22486	-0.0924247	-0.0924247	11	-0.0256735	0	0.0256735	0.000000000000000E+000	0.0256735	0.0000000E+000	0.000000000000000E+000	0.00101707
2	0	0	0	0	0	0	131.161	-0.830035	-0.83045	-1.28599	-0.0955499	-0.0955499	11	-0.0265416	0	0.0265416	0.000000000000000E+000	0.0265416	0.0000000E+000	0.000000000000000E+000	0.00106795
2	0	0	0	0	0	0	133.661	-0.830035	-0.830546	-1.30469	-0.0987921	-0.0987921	11	-0.0274422	0	0.0274422	0.000000000000000E+000	0.0274422	0.0000000E+000	0.000000000000000E+000	0.00108361
2	0	0	0	0	0	0	136.161	-0.830035	-0.830469	-1.29542	-0.102041	-0.102041	11	-0.0283449	0	0.0283449	0.000000000000000E+000	0.0283449	0.0000000E+000	0.000000000000000E+000	0.00107581
2	0	0	0	0	0	0	138.661	-0.830035	-0.830488	-1.30208	-0.105294	-0.105294	11	-0.0292482	0	0.0292482	0.000000000000000E+000	0.0292482	0.0000000E+000	0.000000000000000E+000	0.00108136
2	0	0	0	0	0	0	141.161	-0.830035	-0.830584	-1.30104	-0.108545	-0.108545	11	-0.0301515	0	0.0301515	0.000000000000000E+000	0.0301515	0.0000000E+000	0.000000000000000E+000	0.00108063
2	0	0	0	0	0	0	143.661	-0.830035	-0.830488	-1.38991	-0.111926	-0.111926	11	-0.0310905	0	0.0310905	0.000000000000000E+000	0.0310905	0.0000000E+000	0.000000000000000E+000	0.0011543
2	0	0	0	0	0	0	146.161	-0.830035	-0.830355	-1.39454	-0.115403	-0.115403	11	-0.0320564	0	0.0320564	0.000000000000000E+000	0.0320564	0.0000000E+000	0.000000000000000E+000	0.00115796
2	0	0	0	0	0	0	148.661	-0.830035	-0.830488	-1.39232	-0.118879	-0.118879	11	-0.033022	0	0.033022	0.000000000000000E+000	0.033022	0.0000000E+000	0.000000000000000E+000	0.0011563
2	0	0	0	0	0	0	151.161	-0.830035	-0.830546	-1.38789	-0.122354	-0.122354	11	-0.0339873	0	0.0339873	0.000000000000000E+000	0.0339873	0.0000000E+000	0.000000000000000E+000	0.0011527
2	0	0	0	0	0	0	153.661	-0.830035	-0.830431	-1.38908	-0.125831	-0.125831	11	-0.034953	0	0.034953	0.000000000000000E+000	0.034953	0.0000000E+000	0.000000000000000E+000	0.00115354
2	0	0	0	0	0	0	156.161	-0.830035	-0.830527	-1.45776	-0.129429	-0.129429	11	-0.0359525	0	0.0359525	0.000000000000000E+000	0.0359525	0.0000000E+000	0.000000000000000E+000	0.00121071
2	0	0	0	0	0	0	158.661	-0.830035	-0.83045	-1.45169	-0.133066	-0.133066	11	-0.0369627	0	0.0369627	0.000000000000000E+000	0.0369627	0.0000000E+000	0.000000000000000E+000	0.00120555
2	0	0	0	0	0	0	161.161	-0.830035	-0.830527	-1.45196	-0.136692	-0.136692	11	-0.0379699	0	0.0379699	0.000000000000000E+000	0.0379699	0.0000000E+000	0.000000000000000E+000	0.00120589
2	0	0	0	0	0	0	163.661	-0.830035	-0.830355	-1.45537	-0.140323	-0.140323	11	-0.0389786	0	0.0389786	0.000000000000000E+000	0.0389786	0.0000000E+000	0.000000000000000E+000	0.00120847
2	0	0	0	0	0	0	166.161	-0.830035	-0.830412	-1.53378	-0.144086	-0.144086	11	-0.0400239	0	0.0400239	0.000000000000000E+000	0.0400239	0.0000000E+000	0.000000000000000E+000	0.00127367
2	0	0	0	0	0	0	168.661	-0.830035	-0.830565	-1.53004	-0.147915	-0.147915	11	-0.0410875	0	0.0410875	0.000000000000000E+000	0.0410875	0.0000000E+000	0.000000000000000E+000	0.00127079
2	0	0	0	0	0	0	171.161	-0.830035	-0.830374	-1.5279	-0.151738	-0.151738	11	-0.0421496	0	0.0421496	0.000000000000000E+000	0.0421496	0.0000000E+000	0.000000000000000E+000	0.00126873
2	0	0	0	0	0	0	173.661	-0.830035	-0.830546	-1.52709	-0.155558	-0.155558	11	-0.0432105	0	0.0432105	0.000000000000000E+000	0.0432105	0.0000000E+000	0.000000000000000E+000	0.00126832
2	0	0	0	0	0	0	176.161	-0.830035	-0.830412	-1.56228	-0.159424	-0.159424	11	-0.0442844	0	0.0442844	0.000000000000000E+000	0.0442844	0.0000000E+000	0.000000000000000E+000	0.00129733
2	0	0	0	0	0	0	178.661	-0.830035	-0.830603	-1.55679	-0.163318	-0.163318	11	-0.0453662	0	0.0453662	0.000000000000000E+000	0.0453662	0.0000000E+000	0.000000000000000E+000	0.00129308
2	0	0	0	0	0	0	181.161	-0.830035	-0.830508	-1.55522	-0.167209	-0.167209	11	-0.0464469	0	0.0464469	0.000000000000000E+000	0.0464469	0.0000000E+000	0.000000000000000E+000	0.00129163
2	0	0	0	0	0	0	183.661	-0.830035	-0.830336	-1.55431	-0.171095	-0.171095	11	-0.0475264	0	0.0475264	0.000000000000000E+000	0.0475264	0.0000000E+000	0.000000000000000E+000	0.0012906
2	0	0	0	0	0	0	186.161	-0.830035	-0.830641	-1.59472	-0.175082	-0.175082	11	-0.0486339	0	0.0486339	0.000000000000000E+000	0.0486339	0.0000000E+000	0.000000000000000E+000	0.00132464
2	0	0	0	0	0	0	188.661	-0.830035	-0.830431	-1.59352	-0.179069	-0.179069	11	-0.0497414	0	0.0497414	0.000000000000000E+000	0.0497414	0.0000000E+000	0.000000000000000E+000	0.00132331
2	0	0	0	0	0	0	191.161	-0.830035	-0.830565	-1.5897	-0.183048	-0.183048	11	-0.0508466	0	0.0508466	0.000000000000000E+000	0.0508466	0.0000000E+000	0.000000000000000E+000	0.00132035
2	0	0	0	0	0	0	193.661	-0.830035	-0.830393	-1.58876	-0.187021	-0.187021	11	-0.0519503	0	0.0519503	0.000000000000000E+000	0.0519503	0.0000000E+000	0.000000000000000E+000	0.00131929
2	0	0	0	0	0	0	196.161	-0.830035	-0.830469	-1.58442	-0.190987	-0.190987	11	-0.0530518	0	0.0530518	0.000000000000000E+000	0.0530518	0.0000000E+000	0.000000000000000E+000	0.00131582
2	0	0	0	0	0	0	198.661	-0.830035	-0.830393	-1.58421	-0.194948	-0.194948	11	-0.0541524	0	0.0541524	0.000000000000000E+000	0.0541524	0.0000000E+000	0.000000000000000E+000	0.00131552
2	0	0	0	0	0	0	199.921	-0.830035	-0.830565	-1.58357	-0.196944	-0.196944	11	-0.0547067	0	0.0547067	0.000000000000000E+000	0.0547067	0.0000000E+000	0.000000000000000E+000	0.00131526