File: ZnPVAGAECH_08 03-23-22-ZnPVAGA ECH KL 100-1600 rpm at -0_8V vs RHE RDE2_03_CA_C05(1).mpt
EC-Lab ASCII FILE
Nb header lines : 66

Chronoamperometry / Chronocoulometry

Run on channel : 5 (SN 6729)
User :
CE vs. WE compliance from -10 V to 10 V
Electrode connection : standard
Potential control : Ewe
Ewe ctrl range : min = -2.50 V, max = 2.50 V
Safety Limits :
	Do not start on E overload
Acquisition started on : 03/23/2022 16:11:12.156
Technique started on : 03/23/2022 16:14:33.485
Loaded Setting File :  NONE
Saved on :
	File : 03-23-22-ZnPVAGA  ECH KL 100-1600 rpm at -0_8V vs RHE RDE2_03_CA_C05.mpr
	Directory : \\research-scb.egr.msu.edu\research-scb\Mindy\Koutecky Levich\Zn GA PVA 001\ECH\03-23-22\
	Host : 35.9.136.210
Device : VSP (SN 0012)
Address : 35.9.137.65
EC-Lab for windows v11.43 (software)
Internet server v11.40 (firmware)
Command interpretor v11.40 (firmware)
Electrode material : Au/Pd
Initial state :
Electrolyte : NaCl (0.2M)
Comments : Fe(CN)63-/Fe(CN)64- 5.10-3 M
Reference electrode : SCE Saturated Calomel Electrode (0.241 V)
Electrode surface area : 0.196 cm²
Characteristic mass : 0.001 g
Equivalent Weight : 0.000 g/eq.
Density : 0.000 g/cm3
Volume (V) : 0.001 cm³
Cycle Definition : Charge/Discharge alternance
Ei (V)              -0.700
vs.                 Ref
ti (h:m:s)          0:30:0.0000
Imax                pass
unit Imax           mA
Imin                pass
unit Imin           mA
dQM                 0.000
unit dQM            mA.h
record              <I>
dI                  5.000
unit dI             µA
dQ                  0.000
unit dQ             mA.h
dt (s)              0.1000
dta (s)             0.1000
E range min (V)     -2.500
E range max (V)     2.500
I Range             Auto
I Range min         Unset
I Range max         Unset
I Range init        Unset
Bandwidth           5
goto Ns'            0
nc cycles           0

Modify on : 03/23/2022 16:14
Ei (V)              -0.900

mode	ox/red	error	control changes	Ns changes	counter inc.	Ns	time/s	control/V	Ewe/V	<I>/mA	dQ/C	(Q-Qo)/C	I Range	Q charge/discharge/mA.h	half cycle	Q discharge/mA.h	Q charge/mA.h	Capacity/mA.h	Efficiency/%	cycle number	P/W
2	0	0	0	0	0	0	201.329	-0.899966	-0.900286	-2.06349	-9.30527e-05	-9.30527e-05	11	-2.5848e-05	0	2.5848e-05	0.000000000000000E+000	2.5848e-05	0.0000000E+000	0.000000000000000E+000	0.00185773
2	0	0	0	0	0	0	206.129	-0.899966	-0.900382	-1.71722	-0.00842358	-0.00842358	11	-0.00233988	0	0.00233988	0.000000000000000E+000	0.00233988	0.0000000E+000	0.000000000000000E+000	0.00154616
2	0	0	0	0	0	0	210.929	-0.899966	-0.900324	-1.71515	-0.0166629	-0.0166629	11	-0.00462857	0	0.00462857	0.000000000000000E+000	0.00462857	0.0000000E+000	0.000000000000000E+000	0.00154419
2	0	0	0	0	0	0	215.729	-0.899966	-0.900343	-1.71703	-0.0248974	-0.0248974	11	-0.00691595	0	0.00691595	0.000000000000000E+000	0.00691595	0.0000000E+000	0.000000000000000E+000	0.00154592
2	0	0	0	0	0	0	220.529	-0.899966	-0.900343	-1.64555	-0.0329249	-0.0329249	11	-0.0091458	0	0.0091458	0.000000000000000E+000	0.0091458	0.0000000E+000	0.000000000000000E+000	0.00148156
2	0	0	0	0	0	0	225.329	-0.899966	-0.900458	-1.63772	-0.0407965	-0.0407965	11	-0.0113323	0	0.0113323	0.000000000000000E+000	0.0113323	0.0000000E+000	0.000000000000000E+000	0.0014747
2	0	0	0	0	0	0	230.129	-0.899966	-0.900401	-1.63752	-0.0486616	-0.0486616	11	-0.0135171	0	0.0135171	0.000000000000000E+000	0.0135171	0.0000000E+000	0.000000000000000E+000	0.00147442
2	0	0	0	0	0	0	234.929	-0.899966	-0.900382	-1.63427	-0.0565139	-0.0565139	11	-0.0156983	0	0.0156983	0.000000000000000E+000	0.0156983	0.0000000E+000	0.000000000000000E+000	0.00147147
2	0	0	0	0	0	0	239.729	-0.899966	-0.900324	-1.63281	-0.0643505	-0.0643505	11	-0.0178751	0	0.0178751	0.000000000000000E+000	0.0178751	0.0000000E+000	0.000000000000000E+000	0.00147006
2	0	0	0	0	0	0	244.529	-0.899966	-0.900343	-1.59515	-0.072147	-0.072147	11	-0.0200408	0	0.0200408	0.000000000000000E+000	0.0200408	0.0000000E+000	0.000000000000000E+000	0.00143618
2	0	0	0	0	0	0	249.329	-0.899966	-0.900324	-1.57939	-0.0797492	-0.0797492	11	-0.0221526	0	0.0221526	0.000000000000000E+000	0.0221526	0.0000000E+000	0.000000000000000E+000	0.00142196
2	0	0	0	0	0	0	254.129	-0.899966	-0.900305	-1.57863	-0.0873184	-0.0873184	11	-0.0242551	0	0.0242551	0.000000000000000E+000	0.0242551	0.0000000E+000	0.000000000000000E+000	0.00142125
2	0	0	0	0	0	0	258.929	-0.899966	-0.900324	-1.57418	-0.0948835	-0.0948835	11	-0.0263565	0	0.0263565	0.000000000000000E+000	0.0263565	0.0000000E+000	0.000000000000000E+000	0.00141728
2	0	0	0	0	0	0	263.729	-0.899966	-0.900305	-1.55629	-0.102436	-0.102436	11	-0.0284546	0	0.0284546	0.000000000000000E+000	0.0284546	0.0000000E+000	0.000000000000000E+000	0.00140114
2	0	0	0	0	0	0	268.529	-0.899966	-0.900362	-1.47417	-0.109618	-0.109618	11	-0.0304494	0	0.0304494	0.000000000000000E+000	0.0304494	0.0000000E+000	0.000000000000000E+000	0.00132729
2	0	0	0	0	0	0	273.329	-0.899966	-0.900324	-1.46947	-0.116676	-0.116676	11	-0.0324099	0	0.0324099	0.000000000000000E+000	0.0324099	0.0000000E+000	0.000000000000000E+000	0.001323
2	0	0	0	0	0	0	278.129	-0.899966	-0.900362	-1.46394	-0.123718	-0.123718	11	-0.034366	0	0.034366	0.000000000000000E+000	0.034366	0.0000000E+000	0.000000000000000E+000	0.00131807
2	0	0	0	0	0	0	282.929	-0.899966	-0.90042	-1.41399	-0.130679	-0.130679	11	-0.0362996	0	0.0362996	0.000000000000000E+000	0.0362996	0.0000000E+000	0.000000000000000E+000	0.00127318
2	0	0	0	0	0	0	287.729	-0.899966	-0.90042	-1.37922	-0.137358	-0.137358	11	-0.0381551	0	0.0381551	0.000000000000000E+000	0.0381551	0.0000000E+000	0.000000000000000E+000	0.00124188
2	0	0	0	0	0	0	292.529	-0.899966	-0.900401	-1.38075	-0.143974	-0.143974	11	-0.0399929	0	0.0399929	0.000000000000000E+000	0.0399929	0.0000000E+000	0.000000000000000E+000	0.00124323
2	0	0	0	0	0	0	297.329	-0.899966	-0.900343	-1.37892	-0.150598	-0.150598	11	-0.0418327	0	0.0418327	0.000000000000000E+000	0.0418327	0.0000000E+000	0.000000000000000E+000	0.00124151
2	0	0	0	0	0	0	302.129	-0.899966	-0.900343	-1.36244	-0.157206	-0.157206	11	-0.0436682	0	0.0436682	0.000000000000000E+000	0.0436682	0.0000000E+000	0.000000000000000E+000	0.00122667
2	0	0	0	0	0	0	306.929	-0.899966	-0.900439	-1.29311	-0.163509	-0.163509	11	-0.0454192	0	0.0454192	0.000000000000000E+000	0.0454192	0.0000000E+000	0.000000000000000E+000	0.00116437
2	0	0	0	0	0	0	311.729	-0.899966	-0.90042	-1.28172	-0.169673	-0.169673	11	-0.0471314	0	0.0471314	0.000000000000000E+000	0.0471314	0.0000000E+000	0.000000000000000E+000	0.00115409
2	0	0	0	0	0	0	316.529	-0.899966	-0.90042	-1.27423	-0.175805	-0.175805	11	-0.0488347	0	0.0488347	0.000000000000000E+000	0.0488347	0.0000000E+000	0.000000000000000E+000	0.00114735
2	0	0	0	0	0	0	321.329	-0.899966	-0.900343	-1.27363	-0.18192	-0.18192	11	-0.0505333	0	0.0505333	0.000000000000000E+000	0.0505333	0.0000000E+000	0.000000000000000E+000	0.0011467
2	0	0	0	0	0	0	326.129	-0.899966	-0.900362	-1.26697	-0.188038	-0.188038	11	-0.0522327	0	0.0522327	0.000000000000000E+000	0.0522327	0.0000000E+000	0.000000000000000E+000	0.00114074
2	0	0	0	0	0	0	330.929	-0.899966	-0.900362	-1.21541	-0.193971	-0.193971	11	-0.0538808	0	0.0538808	0.000000000000000E+000	0.0538808	0.0000000E+000	0.000000000000000E+000	0.00109431
2	0	0	0	0	0	0	335.729	-0.899966	-0.900343	-1.20026	-0.199762	-0.199762	11	-0.0554895	0	0.0554895	0.000000000000000E+000	0.0554895	0.0000000E+000	0.000000000000000E+000	0.00108064
2	0	0	0	0	0	0	340.529	-0.899966	-0.900401	-1.1961	-0.205511	-0.205511	11	-0.0570863	0	0.0570863	0.000000000000000E+000	0.0570863	0.0000000E+000	0.000000000000000E+000	0.00107697
2	0	0	0	0	0	0	345.329	-0.899966	-0.900305	-1.19989	-0.211262	-0.211262	11	-0.0586839	0	0.0586839	0.000000000000000E+000	0.0586839	0.0000000E+000	0.000000000000000E+000	0.00108026
2	0	0	0	0	0	0	350.129	-0.899966	-0.900362	-1.19873	-0.217016	-0.217016	11	-0.0602822	0	0.0602822	0.000000000000000E+000	0.0602822	0.0000000E+000	0.000000000000000E+000	0.00107929
2	0	0	0	0	0	0	354.929	-0.899966	-0.900382	-1.23926	-0.222832	-0.222832	11	-0.0618977	0	0.0618977	0.000000000000000E+000	0.0618977	0.0000000E+000	0.000000000000000E+000	0.00111581
2	0	0	0	0	0	0	359.729	-0.899966	-0.900343	-1.26584	-0.228866	-0.228866	11	-0.063574	0	0.063574	0.000000000000000E+000	0.063574	0.0000000E+000	0.000000000000000E+000	0.00113969
2	0	0	0	0	0	0	364.529	-0.899966	-0.900362	-1.26224	-0.234941	-0.234941	11	-0.0652615	0	0.0652615	0.000000000000000E+000	0.0652615	0.0000000E+000	0.000000000000000E+000	0.00113648
2	0	0	0	0	0	0	369.329	-0.899966	-0.900343	-1.26399	-0.241002	-0.241002	11	-0.066945	0	0.066945	0.000000000000000E+000	0.066945	0.0000000E+000	0.000000000000000E+000	0.00113803
2	0	0	0	0	0	0	374.129	-0.899966	-0.900324	-1.34134	-0.24733	-0.24733	11	-0.0687029	0	0.0687029	0.000000000000000E+000	0.0687029	0.0000000E+000	0.000000000000000E+000	0.00120764
2	0	0	0	0	0	0	378.929	-0.899966	-0.900362	-1.35204	-0.253794	-0.253794	11	-0.0704982	0	0.0704982	0.000000000000000E+000	0.0704982	0.0000000E+000	0.000000000000000E+000	0.00121733
2	0	0	0	0	0	0	383.729	-0.899966	-0.900343	-1.34901	-0.260275	-0.260275	11	-0.0722986	0	0.0722986	0.000000000000000E+000	0.0722986	0.0000000E+000	0.000000000000000E+000	0.00121457
2	0	0	0	0	0	0	388.529	-0.899966	-0.900229	-1.35072	-0.266758	-0.266758	11	-0.0740995	0	0.0740995	0.000000000000000E+000	0.0740995	0.0000000E+000	0.000000000000000E+000	0.00121596
2	0	0	0	0	0	0	393.329	-0.899966	-0.900382	-1.354	-0.27324	-0.27324	11	-0.0759	0	0.0759	0.000000000000000E+000	0.0759	0.0000000E+000	0.000000000000000E+000	0.00121911
2	0	0	0	0	0	0	398.129	-0.899966	-0.900401	-1.4138	-0.279949	-0.279949	11	-0.0777637	0	0.0777637	0.000000000000000E+000	0.0777637	0.0000000E+000	0.000000000000000E+000	0.00127298
2	0	0	0	0	0	0	402.929	-0.899966	-0.900401	-1.4166	-0.286743	-0.286743	11	-0.0796509	0	0.0796509	0.000000000000000E+000	0.0796509	0.0000000E+000	0.000000000000000E+000	0.00127551
2	0	0	0	0	0	0	407.729	-0.899966	-0.900343	-1.41421	-0.293538	-0.293538	11	-0.0815384	0	0.0815384	0.000000000000000E+000	0.0815384	0.0000000E+000	0.000000000000000E+000	0.00127328
2	0	0	0	0	0	0	412.529	-0.899966	-0.900324	-1.49078	-0.300451	-0.300451	11	-0.0834587	0	0.0834587	0.000000000000000E+000	0.0834587	0.0000000E+000	0.000000000000000E+000	0.00134219
2	0	0	0	0	0	0	417.329	-0.899966	-0.900191	-1.50782	-0.307663	-0.307663	11	-0.0854618	0	0.0854618	0.000000000000000E+000	0.0854618	0.0000000E+000	0.000000000000000E+000	0.00135732
2	0	0	0	0	0	0	422.129	-0.899966	-0.900248	-1.50822	-0.314893	-0.314893	11	-0.0874703	0	0.0874703	0.000000000000000E+000	0.0874703	0.0000000E+000	0.000000000000000E+000	0.00135777
2	0	0	0	0	0	0	426.929	-0.899966	-0.900401	-1.51115	-0.322142	-0.322142	11	-0.0894838	0	0.0894838	0.000000000000000E+000	0.0894838	0.0000000E+000	0.000000000000000E+000	0.00136064
2	0	0	0	0	0	0	431.729	-0.899966	-0.900382	-1.54967	-0.329536	-0.329536	11	-0.0915378	0	0.0915378	0.000000000000000E+000	0.0915378	0.0000000E+000	0.000000000000000E+000	0.00139529
2	0	0	0	0	0	0	436.529	-0.899966	-0.900401	-1.55462	-0.336985	-0.336985	11	-0.093607	0	0.093607	0.000000000000000E+000	0.093607	0.0000000E+000	0.000000000000000E+000	0.00139978
2	0	0	0	0	0	0	441.329	-0.899966	-0.900362	-1.55176	-0.344444	-0.344444	11	-0.0956789	0	0.0956789	0.000000000000000E+000	0.0956789	0.0000000E+000	0.000000000000000E+000	0.00139715
2	0	0	0	0	0	0	446.129	-0.899966	-0.900477	-1.56407	-0.351897	-0.351897	11	-0.0977491	0	0.0977491	0.000000000000000E+000	0.0977491	0.0000000E+000	0.000000000000000E+000	0.00140841
2	0	0	0	0	0	0	450.929	-0.899966	-0.900343	-1.61781	-0.359625	-0.359625	11	-0.0998958	0	0.0998958	0.000000000000000E+000	0.0998958	0.0000000E+000	0.000000000000000E+000	0.00145659
2	0	0	0	0	0	0	455.729	-0.899966	-0.900439	-1.61973	-0.367401	-0.367401	11	-0.102056	0	0.102056	0.000000000000000E+000	0.102056	0.0000000E+000	0.000000000000000E+000	0.00145847
2	0	0	0	0	0	0	460.529	-0.899966	-0.900343	-1.61937	-0.375179	-0.375179	11	-0.104216	0	0.104216	0.000000000000000E+000	0.104216	0.0000000E+000	0.000000000000000E+000	0.00145799
2	0	0	0	0	0	0	465.329	-0.899966	-0.900324	-1.61631	-0.382957	-0.382957	11	-0.106377	0	0.106377	0.000000000000000E+000	0.106377	0.0000000E+000	0.000000000000000E+000	0.0014552
2	0	0	0	0	0	0	467.833	-0.899966	-0.900458	-1.62415	-0.387018	-0.387018	11	-0.107505	0	0.107505	0.000000000000000E+000	0.107505	0.0000000E+000	0.000000000000000E+000	0.00146248