File: ZnPVAECH_08 03-10-22-ZnPVA ECH K-L 100 to 1600 rpm at -0_8V vs RHE RDE2_C05(1).mpt
EC-Lab ASCII FILE
Nb header lines : 81

Chronoamperometry / Chronocoulometry

Run on channel : 5 (SN 6729)
User :
CE vs. WE compliance from -10 V to 10 V
Electrode connection : standard
Ewe ctrl range : min = -10.00 V, max = 10.00 V
Safety Limits :
	Do not start on E overload
Acquisition started on : 03/10/2022 14:52:03.616
Technique started on : 03/10/2022 14:52:03.716
Loaded Setting File :  NONE
Saved on :
	File : 03-10-22-GC ECH K-L 100 to 1600 rpm at -0_8V vs RHE RDE2_C05.mpr
	Directory : G:\Mindy\Koutecky Levich\Zn PVA\ECH\03-10-22\
	Host : 35.9.136.176
Device : VSP (SN 0012)
Address : 35.9.137.65
EC-Lab for windows v11.36 (software)
Internet server v11.36 (firmware)
Command interpretor v11.36 (firmware)
Electrode material : Au/Pd
Initial state :
Electrolyte : NaCl (0.2M)
Comments : Fe(CN)63-/Fe(CN)64- 5.10-3 M
Reference electrode : SCE Saturated Calomel Electrode (0.241 V)
Electrode surface area : 0.196 cm²
Characteristic mass : 0.001 g
Equivalent Weight : 0.000 g/eq.
Density : 0.000 g/cm3
Record Analogic IN 1
Cycle Definition : Charge/Discharge alternance
External device configuration :
   device type : RDE
   device name : BluRev RDE
   Analog OUT :
      mode : E/V
      unit : speed/rpm
      max : 10000.000 at 10.000 V
      min : 0.000 at 0.000 V
      current : 1600.000
   Analog IN 1 :
      unit : speed/rpm
      max : 10000.000 at 10.000 V
      min : 0.000 at 0.000 V
Ei (V)              -1.000
vs.                 Ref
ti (h:m:s)          0:30:0.0000
Imax                pass
unit Imax           mA
Imin                pass
unit Imin           mA
dQM                 0.000
unit dQM            mA.h
record              <I>
dI                  5.000
unit dI             µA
dQ                  0.000
unit dQ             mA.h
dt (s)              0.1000
dta (s)             0.1000
E range min (V)     -10.000
E range max (V)     10.000
I Range             Auto
I Range min         Unset
I Range max         Unset
I Range init        Unset
Bandwidth           5
goto Ns'            0
nc cycles           0

Modify on : 03/10/2022 14:52
Ei (V)              -0.850

Modify on : 03/10/2022 14:52
Ei (V)              -0.800

mode	ox/red	error	control changes	Ns changes	counter inc.	Ns	time/s	control/V	Ewe/V	<I>/mA	dQ/C	(Q-Qo)/C	I Range	Q charge/discharge/mA.h	half cycle	Analog IN 1/V	Analog OUT/V	Q discharge/mA.h	Q charge/mA.h	Capacity/mA.h	Efficiency/%	cycle number	P/W
2	0	0	1	0	0	0	0.1	-1.00001	-1.0001	-10.283	-0.000167588	-0.000167588	11	-4.65523e-05	0	-0.292998	1600	4.65523e-05	0.000000000000000E+000	4.65523e-05	0.0000000E+000	0.000000000000000E+000	0.0102839
2	0	0	1	0	0	0	3.9	-1.00001	-1.00029	-9.60895	-0.0367089	-0.0367089	11	-0.0101969	0	-0.235721	1600	0.0101969	0.000000000000000E+000	0.0101969	0.0000000E+000	0.000000000000000E+000	0.00961171
2	0	0	1	0	0	0	7.7	-1.00001	-1.00023	-9.58529	-0.0731507	-0.0731507	11	-0.0203196	0	-0.216629	1600	0.0203196	0.000000000000000E+000	0.0203196	0.0000000E+000	0.000000000000000E+000	0.0095875
2	0	0	1	0	0	0	11.5	-1.00001	-1.00029	-9.55702	-0.109526	-0.109526	11	-0.0304238	0	-0.273906	1600	0.0304238	0.000000000000000E+000	0.0304238	0.0000000E+000	0.000000000000000E+000	0.00955977
2	0	0	1	0	0	0	15.3	-1.00001	-1.00048	-9.5589	-0.145863	-0.145863	11	-0.0405174	0	-0.254813	1600	0.0405174	0.000000000000000E+000	0.0405174	0.0000000E+000	0.000000000000000E+000	0.00956347
2	0	0	0	0	0	0	19.1	-0.850006	-0.850306	-5.07729	-0.168199	-0.168199	10	-0.0467221	0	-0.197537	1600	0.0467221	0.000000000000000E+000	0.0467221	0.0000000E+000	0.000000000000000E+000	0.00431726
2	0	0	0	0	0	0	22.9	-0.850006	-0.850287	-5.0388	-0.187416	-0.187416	10	-0.05206	0	-0.197537	1600	0.05206	0.000000000000000E+000	0.05206	0.0000000E+000	0.000000000000000E+000	0.00428443
2	0	0	0	0	0	0	26.7	-0.850006	-0.85044	-5.01953	-0.206533	-0.206533	10	-0.0573701	0	-0.216629	1600	0.0573701	0.000000000000000E+000	0.0573701	0.0000000E+000	0.000000000000000E+000	0.00426881
2	0	0	1	0	0	0	30.509	-0.800108	-0.800535	-3.49631	-0.222975	-0.222975	11	-0.0619376	0	-0.159353	1600	0.0619376	0.000000000000000E+000	0.0619376	0.0000000E+000	0.000000000000000E+000	0.00279892
2	0	0	1	0	0	0	34.309	-0.800108	-0.800535	-3.4775	-0.236212	-0.236212	11	-0.0656145	0	-0.159353	1600	0.0656145	0.000000000000000E+000	0.0656145	0.0000000E+000	0.000000000000000E+000	0.00278386
2	0	0	1	0	0	0	38.109	-0.800108	-0.800497	-3.45379	-0.249381	-0.249381	11	-0.0692726	0	-0.254813	1600	0.0692726	0.000000000000000E+000	0.0692726	0.0000000E+000	0.000000000000000E+000	0.00276475
2	0	0	1	0	0	0	41.909	-0.800108	-0.800459	-3.28062	-0.262248	-0.262248	11	-0.0728466	0	-0.235721	1600	0.0728466	0.000000000000000E+000	0.0728466	0.0000000E+000	0.000000000000000E+000	0.002626
2	0	0	1	0	0	0	45.709	-0.800108	-0.800383	-3.27256	-0.274702	-0.274702	11	-0.0763061	0	-0.197537	1600	0.0763061	0.000000000000000E+000	0.0763061	0.0000000E+000	0.000000000000000E+000	0.0026193
2	0	0	1	0	0	0	49.509	-0.800108	-0.80044	-3.25211	-0.287099	-0.287099	11	-0.0797498	0	-0.159353	1600	0.0797498	0.000000000000000E+000	0.0797498	0.0000000E+000	0.000000000000000E+000	0.00260312
2	0	0	1	0	0	0	53.309	-0.800108	-0.800421	-3.23747	-0.299432	-0.299432	11	-0.0831755	0	-0.216629	1600	0.0831755	0.000000000000000E+000	0.0831755	0.0000000E+000	0.000000000000000E+000	0.00259134
2	0	0	1	0	0	0	57.109	-0.800108	-0.800497	-3.10736	-0.311322	-0.311322	11	-0.0864784	0	-0.197537	1600	0.0864784	0.000000000000000E+000	0.0864784	0.0000000E+000	0.000000000000000E+000	0.00248743
2	0	0	1	0	0	0	60.909	-0.800108	-0.800364	-3.09364	-0.323101	-0.323101	11	-0.0897504	0	-0.235721	1600	0.0897504	0.000000000000000E+000	0.0897504	0.0000000E+000	0.000000000000000E+000	0.00247604
2	0	0	1	0	0	0	64.709	-0.800108	-0.800364	-3.08677	-0.334845	-0.334845	11	-0.0930125	0	-0.0638917	1600	0.0930125	0.000000000000000E+000	0.0930125	0.0000000E+000	0.000000000000000E+000	0.00247054
2	0	0	1	0	0	0	68.509	-0.800108	-0.800402	-2.81718	-0.345796	-0.345796	11	-0.0960544	0	-0.235721	1600	0.0960544	0.000000000000000E+000	0.0960544	0.0000000E+000	0.000000000000000E+000	0.00225488
2	0	0	1	0	0	0	72.309	-0.800108	-0.800402	-2.80684	-0.356493	-0.356493	11	-0.0990257	0	-0.273906	1600	0.0990257	0.000000000000000E+000	0.0990257	0.0000000E+000	0.000000000000000E+000	0.0022466
2	0	0	1	0	0	0	76.109	-0.800108	-0.800593	-2.80313	-0.367155	-0.367155	11	-0.101988	0	-0.14026	1600	0.101988	0.000000000000000E+000	0.101988	0.0000000E+000	0.000000000000000E+000	0.00224416
2	0	0	1	0	0	0	79.909	-0.800108	-0.800325	-2.80265	-0.3778	-0.3778	11	-0.104944	0	-0.102076	1600	0.104944	0.000000000000000E+000	0.104944	0.0000000E+000	0.000000000000000E+000	0.00224303
2	0	0	1	0	0	0	83.709	-0.800108	-0.800459	-2.59546	-0.38798	-0.38798	11	-0.107772	0	-0.31209	1600	0.107772	0.000000000000000E+000	0.107772	0.0000000E+000	0.000000000000000E+000	0.00207756
2	0	0	1	0	0	0	87.509	-0.800108	-0.800402	-2.58117	-0.397831	-0.397831	11	-0.110509	0	-0.14026	1600	0.110509	0.000000000000000E+000	0.110509	0.0000000E+000	0.000000000000000E+000	0.00206597
2	0	0	1	0	0	0	91.309	-0.800108	-0.800421	-2.578	-0.407652	-0.407652	11	-0.113237	0	-0.273906	1600	0.113237	0.000000000000000E+000	0.113237	0.0000000E+000	0.000000000000000E+000	0.00206349
2	0	0	1	0	0	0	95.109	-0.800108	-0.80044	-2.46879	-0.417424	-0.417424	11	-0.115951	0	-0.235721	1600	0.115951	0.000000000000000E+000	0.115951	0.0000000E+000	0.000000000000000E+000	0.00197612
2	0	0	1	0	0	0	98.909	-0.800108	-0.800345	-2.32558	-0.426347	-0.426347	11	-0.11843	0	-0.216629	1600	0.11843	0.000000000000000E+000	0.11843	0.0000000E+000	0.000000000000000E+000	0.00186126
2	0	0	1	0	0	0	102.709	-0.800108	-0.800421	-2.31833	-0.435163	-0.435163	11	-0.120879	0	-0.197537	1600	0.120879	0.000000000000000E+000	0.120879	0.0000000E+000	0.000000000000000E+000	0.00185564
2	0	0	1	0	0	0	106.509	-0.800108	-0.800268	-2.30542	-0.443951	-0.443951	11	-0.12332	0	-0.14026	1600	0.12332	0.000000000000000E+000	0.12332	0.0000000E+000	0.000000000000000E+000	0.00184496
2	0	0	1	0	0	0	110.309	-0.800108	-0.800421	-2.11941	-0.452329	-0.452329	11	-0.125647	0	-0.197537	1600	0.125647	0.000000000000000E+000	0.125647	0.0000000E+000	0.000000000000000E+000	0.00169642
2	0	0	1	0	0	0	114.109	-0.800108	-0.800402	-2.09745	-0.460337	-0.460337	11	-0.127872	0	-0.197537	1600	0.127872	0.000000000000000E+000	0.127872	0.0000000E+000	0.000000000000000E+000	0.0016788
2	0	0	1	0	0	0	117.909	-0.800108	-0.800402	-2.08586	-0.468305	-0.468305	11	-0.130085	0	-0.14026	1600	0.130085	0.000000000000000E+000	0.130085	0.0000000E+000	0.000000000000000E+000	0.00166953
2	0	0	1	0	0	0	121.709	-0.800108	-0.80044	-2.1148	-0.476243	-0.476243	11	-0.13229	0	-0.197537	1600	0.13229	0.000000000000000E+000	0.13229	0.0000000E+000	0.000000000000000E+000	0.00169277
2	0	0	1	0	0	0	125.509	-0.800108	-0.800383	-2.27227	-0.484761	-0.484761	11	-0.134656	0	-0.178445	1600	0.134656	0.000000000000000E+000	0.134656	0.0000000E+000	0.000000000000000E+000	0.00181869
2	0	0	1	0	0	0	129.309	-0.800108	-0.800364	-2.27748	-0.493418	-0.493418	11	-0.137061	0	-0.14026	1600	0.137061	0.000000000000000E+000	0.137061	0.0000000E+000	0.000000000000000E+000	0.00182281
2	0	0	1	0	0	0	133.109	-0.800108	-0.80044	-2.27768	-0.502057	-0.502057	11	-0.13946	0	-0.235721	1600	0.13946	0.000000000000000E+000	0.13946	0.0000000E+000	0.000000000000000E+000	0.00182314
2	0	0	1	0	0	0	136.909	-0.800108	-0.800345	-2.51158	-0.511275	-0.511275	11	-0.142021	0	-0.31209	1600	0.142021	0.000000000000000E+000	0.142021	0.0000000E+000	0.000000000000000E+000	0.00201013
2	0	0	1	0	0	0	140.709	-0.800108	-0.800345	-2.50036	-0.520782	-0.520782	11	-0.144662	0	-0.178445	1600	0.144662	0.000000000000000E+000	0.144662	0.0000000E+000	0.000000000000000E+000	0.00200115
2	0	0	1	0	0	0	144.509	-0.800108	-0.800421	-2.50195	-0.530267	-0.530267	11	-0.147296	0	-0.197537	1600	0.147296	0.000000000000000E+000	0.147296	0.0000000E+000	0.000000000000000E+000	0.00200262
2	0	0	1	0	0	0	148.309	-0.800108	-0.800345	-2.67275	-0.540377	-0.540377	11	-0.150105	0	-0.235721	1600	0.150105	0.000000000000000E+000	0.150105	0.0000000E+000	0.000000000000000E+000	0.00213912
2	0	0	1	0	0	0	152.109	-0.800108	-0.800402	-2.66685	-0.550536	-0.550536	11	-0.152927	0	-0.159353	1600	0.152927	0.000000000000000E+000	0.152927	0.0000000E+000	0.000000000000000E+000	0.00213455
2	0	0	1	0	0	0	155.909	-0.800108	-0.80044	-2.81123	-0.560723	-0.560723	11	-0.155756	0	-0.121168	1600	0.155756	0.000000000000000E+000	0.155756	0.0000000E+000	0.000000000000000E+000	0.00225022
2	0	0	1	0	0	0	159.709	-0.800108	-0.800306	-2.899	-0.571737	-0.571737	11	-0.158816	0	-0.235721	1600	0.158816	0.000000000000000E+000	0.158816	0.0000000E+000	0.000000000000000E+000	0.00232009
2	0	0	1	0	0	0	163.509	-0.800108	-0.800421	-2.88944	-0.582731	-0.582731	11	-0.16187	0	-0.197537	1600	0.16187	0.000000000000000E+000	0.16187	0.0000000E+000	0.000000000000000E+000	0.00231277
2	0	0	1	0	0	0	167.309	-0.800108	-0.800516	-2.87905	-0.593695	-0.593695	11	-0.164915	0	-0.159353	1600	0.164915	0.000000000000000E+000	0.164915	0.0000000E+000	0.000000000000000E+000	0.00230472
2	0	0	1	0	0	0	171.109	-0.800108	-0.800364	-2.98142	-0.604814	-0.604814	11	-0.168004	0	-0.254813	1600	0.168004	0.000000000000000E+000	0.168004	0.0000000E+000	0.000000000000000E+000	0.00238622
2	0	0	1	0	0	0	174.909	-0.800108	-0.800421	-2.9704	-0.616128	-0.616128	11	-0.171147	0	-0.14026	1600	0.171147	0.000000000000000E+000	0.171147	0.0000000E+000	0.000000000000000E+000	0.00237757
2	0	0	1	0	0	0	178.709	-0.800108	-0.800345	-2.96781	-0.627409	-0.627409	11	-0.17428	0	-0.178445	1600	0.17428	0.000000000000000E+000	0.17428	0.0000000E+000	0.000000000000000E+000	0.00237527
2	0	0	1	0	0	0	182.509	-0.800108	-0.80044	-2.958	-0.63866	-0.63866	11	-0.177405	0	-0.159353	1600	0.177405	0.000000000000000E+000	0.177405	0.0000000E+000	0.000000000000000E+000	0.0023677
2	0	0	1	0	0	0	186.309	-0.800108	-0.800325	-3.0868	-0.650273	-0.650273	11	-0.180631	0	-0.331182	1600	0.180631	0.000000000000000E+000	0.180631	0.0000000E+000	0.000000000000000E+000	0.00247045
2	0	0	1	0	0	0	190.109	-0.800108	-0.800459	-3.07272	-0.661972	-0.661972	11	-0.183881	0	-0.14026	1600	0.183881	0.000000000000000E+000	0.183881	0.0000000E+000	0.000000000000000E+000	0.00245959
2	0	0	1	0	0	0	193.909	-0.800108	-0.800574	-3.06111	-0.673628	-0.673628	11	-0.187119	0	-0.102076	1600	0.187119	0.000000000000000E+000	0.187119	0.0000000E+000	0.000000000000000E+000	0.00245065
2	0	0	1	0	0	0	195.491	-0.800108	-0.800306	-3.05805	-0.67847	-0.67847	11	-0.188464	0	-0.254813	1600	0.188464	0.000000000000000E+000	0.188464	INF	0.000000000000000E+000	0.00244737