File: ZnPVAGAECH_1 03-20-22-ZnGAPVA ECH-1600 rpm at -1V vs RHE RDE1_04_CA_C05.mpt
EC-Lab ASCII FILE
Nb header lines : 65

Chronoamperometry / Chronocoulometry

Run on channel : 5 (SN 6729)
User :
CE vs. WE compliance from -10 V to 10 V
Electrode connection : standard
Potential control : Ewe
Ewe ctrl range : min = -2.50 V, max = 2.50 V
Safety Limits :
	Do not start on E overload
Acquisition started on : 03/20/2022 14:08:37.437
Technique started on : 03/20/2022 14:14:13.396
Loaded Setting File :  NONE
Saved on :
	File : 03-20-22-ZnGAPVA  ECH-1600 rpm at -0_8V vs RHE RDE1_04_CA_C05.mpr
	Directory : \\research-scb.egr.msu.edu\research-scb\Mindy\Koutecky Levich\Zn GA PVA 001\ECH\03-20-22\
	Host : 35.9.136.210
Device : VSP (SN 0012)
Address : 35.9.137.65
EC-Lab for windows v11.43 (software)
Internet server v11.40 (firmware)
Command interpretor v11.40 (firmware)
Electrode material :
Initial state :
Electrolyte :
Comments :
Electrode surface area : 0.196 cm²
Characteristic mass : 0.001 g
Equivalent Weight : 0.000 g/eq.
Density : 0.000 g/cm3
Volume (V) : 0.001 cm³
Cycle Definition : Charge/Discharge alternance
Ei (V)              -0.500
vs.                 Ref
ti (h:m:s)          0:30:0.0000
Imax                pass
unit Imax           mA
Imin                pass
unit Imin           mA
dQM                 0.000
unit dQM            mA.h
record              <I>
dI                  5.000
unit dI             µA
dQ                  0.000
unit dQ             mA.h
dt (s)              0.1000
dta (s)             0.1000
E range min (V)     -2.500
E range max (V)     2.500
I Range             Auto
I Range min         Unset
I Range max         Unset
I Range init        Unset
Bandwidth           5
goto Ns'            0
nc cycles           0

Modify on : 03/20/2022 14:14
Ei (V)              -1.000

mode	ox/red	error	control changes	Ns changes	counter inc.	Ns	time/s	control/V	Ewe/V	<I>/mA	dQ/C	(Q-Qo)/C	I Range	Q charge/discharge/mA.h	half cycle	Q discharge/mA.h	Q charge/mA.h	Capacity/mA.h	Efficiency/%	cycle number	P/W
2	0	0	1	0	0	0	335.959	-1.00004	-1.00058	-3.66572	-0.000366572	-0.000366572	11	-0.000101825	0	0.000101825	0.000000000000000E+000	0.000101825	0.0000000E+000	0.000000000000000E+000	0.00366783
2	0	0	1	0	0	0	342.859	-1.00004	-1.00054	-3.83579	-0.0267194	-0.0267194	11	-0.00742206	0	0.00742206	0.000000000000000E+000	0.00742206	0.0000000E+000	0.000000000000000E+000	0.00383785
2	0	0	1	0	0	0	349.759	-1.00004	-1.00054	-3.78662	-0.0528823	-0.0528823	11	-0.0146895	0	0.0146895	0.000000000000000E+000	0.0146895	0.0000000E+000	0.000000000000000E+000	0.00378866
2	0	0	1	0	0	0	356.659	-1.00004	-1.0005	-3.76006	-0.0788783	-0.0788783	11	-0.0219106	0	0.0219106	0.000000000000000E+000	0.0219106	0.0000000E+000	0.000000000000000E+000	0.00376194
2	0	0	1	0	0	0	363.559	-1.00004	-1.0005	-3.73131	-0.104749	-0.104749	11	-0.0290968	0	0.0290968	0.000000000000000E+000	0.0290968	0.0000000E+000	0.000000000000000E+000	0.00373317
2	0	0	1	0	0	0	370.459	-1.00004	-1.0005	-3.79522	-0.130627	-0.130627	11	-0.0362852	0	0.0362852	0.000000000000000E+000	0.0362852	0.0000000E+000	0.000000000000000E+000	0.00379712
2	0	0	1	0	0	0	377.359	-1.00004	-1.00042	-3.87259	-0.157132	-0.157132	11	-0.0436477	0	0.0436477	0.000000000000000E+000	0.0436477	0.0000000E+000	0.000000000000000E+000	0.00387423
2	0	0	1	0	0	0	384.259	-1.00004	-1.0005	-3.85681	-0.18386	-0.18386	11	-0.0510723	0	0.0510723	0.000000000000000E+000	0.0510723	0.0000000E+000	0.000000000000000E+000	0.00385873
2	0	0	1	0	0	0	391.159	-1.00004	-1.00069	-3.91829	-0.210592	-0.210592	11	-0.0584978	0	0.0584978	0.000000000000000E+000	0.0584978	0.0000000E+000	0.000000000000000E+000	0.003921
2	0	0	1	0	0	0	398.059	-1.00004	-1.0005	-3.90295	-0.237545	-0.237545	11	-0.0659848	0	0.0659848	0.000000000000000E+000	0.0659848	0.0000000E+000	0.000000000000000E+000	0.0039049
2	0	0	1	0	0	0	404.959	-1.00004	-1.00044	-3.882	-0.264453	-0.264453	11	-0.0734592	0	0.0734592	0.000000000000000E+000	0.0734592	0.0000000E+000	0.000000000000000E+000	0.00388372
2	0	0	1	0	0	0	411.859	-1.00004	-1.0005	-3.91578	-0.291283	-0.291283	11	-0.0809118	0	0.0809118	0.000000000000000E+000	0.0809118	0.0000000E+000	0.000000000000000E+000	0.00391773
2	0	0	1	0	0	0	418.759	-1.00004	-1.00029	-3.15362	-0.314279	-0.314279	11	-0.0872996	0	0.0872996	0.000000000000000E+000	0.0872996	0.0000000E+000	0.000000000000000E+000	0.00315454
2	0	0	1	0	0	0	425.659	-1.00004	-1.0004	-3.17363	-0.336084	-0.336084	11	-0.0933567	0	0.0933567	0.000000000000000E+000	0.0933567	0.0000000E+000	0.000000000000000E+000	0.00317491
2	0	0	1	0	0	0	432.559	-1.00004	-1.0004	-3.17611	-0.357933	-0.357933	11	-0.0994259	0	0.0994259	0.000000000000000E+000	0.0994259	0.0000000E+000	0.000000000000000E+000	0.00317739
2	0	0	1	0	0	0	439.459	-1.00004	-1.00038	-2.79649	-0.377638	-0.377638	11	-0.1049	0	0.1049	0.000000000000000E+000	0.1049	0.0000000E+000	0.000000000000000E+000	0.00279756
2	0	0	1	0	0	0	446.359	-1.00004	-1.00042	-2.79908	-0.396921	-0.396921	11	-0.110256	0	0.110256	0.000000000000000E+000	0.110256	0.0000000E+000	0.000000000000000E+000	0.00280026
2	0	0	1	0	0	0	453.259	-1.00004	-1.00054	-2.79941	-0.416238	-0.416238	11	-0.115622	0	0.115622	0.000000000000000E+000	0.115622	0.0000000E+000	0.000000000000000E+000	0.00280091
2	0	0	1	0	0	0	460.159	-1.00004	-1.00048	-2.31404	-0.432811	-0.432811	11	-0.120225	0	0.120225	0.000000000000000E+000	0.120225	0.0000000E+000	0.000000000000000E+000	0.00231515
2	0	0	1	0	0	0	467.059	-1.00004	-1.00044	-2.29856	-0.448792	-0.448792	11	-0.124664	0	0.124664	0.000000000000000E+000	0.124664	0.0000000E+000	0.000000000000000E+000	0.00229958
2	0	0	1	0	0	0	473.959	-1.00004	-1.00044	-2.25714	-0.464544	-0.464544	11	-0.12904	0	0.12904	0.000000000000000E+000	0.12904	0.0000000E+000	0.000000000000000E+000	0.00225814
2	0	0	1	0	0	0	480.859	-1.00004	-1.00038	-2.27995	-0.48029	-0.48029	11	-0.133414	0	0.133414	0.000000000000000E+000	0.133414	0.0000000E+000	0.000000000000000E+000	0.00228083
2	0	0	1	0	0	0	487.759	-1.00004	-1.00038	-2.27881	-0.496018	-0.496018	11	-0.137783	0	0.137783	0.000000000000000E+000	0.137783	0.0000000E+000	0.000000000000000E+000	0.00227969
2	0	0	1	0	0	0	494.659	-1.00004	-1.00054	-2.08036	-0.511457	-0.511457	11	-0.142071	0	0.142071	0.000000000000000E+000	0.142071	0.0000000E+000	0.000000000000000E+000	0.00208148
2	0	0	1	0	0	0	501.559	-1.00004	-1.0005	-2.03207	-0.525476	-0.525476	11	-0.145965	0	0.145965	0.000000000000000E+000	0.145965	0.0000000E+000	0.000000000000000E+000	0.00203309
2	0	0	1	0	0	0	508.459	-1.00004	-1.00046	-2.00874	-0.539394	-0.539394	11	-0.149832	0	0.149832	0.000000000000000E+000	0.149832	0.0000000E+000	0.000000000000000E+000	0.00200966
2	0	0	1	0	0	0	515.359	-1.00004	-1.00038	-1.98862	-0.553254	-0.553254	11	-0.153682	0	0.153682	0.000000000000000E+000	0.153682	0.0000000E+000	0.000000000000000E+000	0.00198939
2	0	0	1	0	0	0	522.259	-1.00004	-1.00046	-1.7855	-0.565985	-0.565985	11	-0.157218	0	0.157218	0.000000000000000E+000	0.157218	0.0000000E+000	0.000000000000000E+000	0.00178632
2	0	0	1	0	0	0	529.159	-1.00004	-1.0004	-1.78689	-0.57829	-0.57829	11	-0.160636	0	0.160636	0.000000000000000E+000	0.160636	0.0000000E+000	0.000000000000000E+000	0.00178761
2	0	0	1	0	0	0	536.059	-1.00004	-1.00037	-1.7264	-0.590494	-0.590494	11	-0.164026	0	0.164026	0.000000000000000E+000	0.164026	0.0000000E+000	0.000000000000000E+000	0.00172703
2	0	0	1	0	0	0	542.959	-1.00004	-1.00063	-1.64688	-0.601988	-0.601988	11	-0.167219	0	0.167219	0.000000000000000E+000	0.167219	0.0000000E+000	0.000000000000000E+000	0.00164792
2	0	0	1	0	0	0	549.859	-1.00004	-1.00037	-1.64261	-0.613283	-0.613283	11	-0.170357	0	0.170357	0.000000000000000E+000	0.170357	0.0000000E+000	0.000000000000000E+000	0.00164321
2	0	0	1	0	0	0	556.759	-1.00004	-1.00037	-1.62469	-0.624542	-0.624542	11	-0.173484	0	0.173484	0.000000000000000E+000	0.173484	0.0000000E+000	0.000000000000000E+000	0.00162528
2	0	0	1	0	0	0	563.659	-1.00004	-1.00037	-1.69672	-0.635928	-0.635928	11	-0.176647	0	0.176647	0.000000000000000E+000	0.176647	0.0000000E+000	0.000000000000000E+000	0.00169734
2	0	0	1	0	0	0	570.559	-1.00004	-1.00037	-1.75543	-0.647888	-0.647888	11	-0.179969	0	0.179969	0.000000000000000E+000	0.179969	0.0000000E+000	0.000000000000000E+000	0.00175607
2	0	0	1	0	0	0	577.459	-1.00004	-1.00046	-1.75527	-0.659925	-0.659925	11	-0.183313	0	0.183313	0.000000000000000E+000	0.183313	0.0000000E+000	0.000000000000000E+000	0.00175608
2	0	0	1	0	0	0	584.359	-1.00004	-1.00048	-1.91856	-0.672126	-0.672126	11	-0.186702	0	0.186702	0.000000000000000E+000	0.186702	0.0000000E+000	0.000000000000000E+000	0.00191948
2	0	0	1	0	0	0	591.259	-1.00004	-1.00052	-1.94865	-0.685559	-0.685559	11	-0.190433	0	0.190433	0.000000000000000E+000	0.190433	0.0000000E+000	0.000000000000000E+000	0.00194966
2	0	0	1	0	0	0	598.159	-1.00004	-1.00044	-1.93636	-0.699017	-0.699017	11	-0.194171	0	0.194171	0.000000000000000E+000	0.194171	0.0000000E+000	0.000000000000000E+000	0.00193721
2	0	0	1	0	0	0	605.059	-1.00004	-1.00038	-2.20947	-0.712864	-0.712864	11	-0.198018	0	0.198018	0.000000000000000E+000	0.198018	0.0000000E+000	0.000000000000000E+000	0.00221032
2	0	0	1	0	0	0	611.959	-1.00004	-1.00054	-2.19773	-0.728174	-0.728174	11	-0.20227	0	0.20227	0.000000000000000E+000	0.20227	0.0000000E+000	0.000000000000000E+000	0.00219891
2	0	0	1	0	0	0	618.859	-1.00004	-1.00033	-2.22047	-0.743478	-0.743478	11	-0.206522	0	0.206522	0.000000000000000E+000	0.206522	0.0000000E+000	0.000000000000000E+000	0.00222119
2	0	0	1	0	0	0	625.759	-1.00004	-1.00035	-2.78362	-0.759768	-0.759768	11	-0.211047	0	0.211047	0.000000000000000E+000	0.211047	0.0000000E+000	0.000000000000000E+000	0.00278458
2	0	0	1	0	0	0	632.659	-1.00004	-1.0005	-2.77528	-0.778912	-0.778912	11	-0.216364	0	0.216364	0.000000000000000E+000	0.216364	0.0000000E+000	0.000000000000000E+000	0.00277666
2	0	0	1	0	0	0	639.559	-1.00004	-1.00046	-2.77237	-0.798176	-0.798176	11	-0.221716	0	0.221716	0.000000000000000E+000	0.221716	0.0000000E+000	0.000000000000000E+000	0.00277364
2	0	0	1	0	0	0	646.459	-1.00004	-1.00037	-2.78026	-0.817323	-0.817323	11	-0.227034	0	0.227034	0.000000000000000E+000	0.227034	0.0000000E+000	0.000000000000000E+000	0.00278127
2	0	0	1	0	0	0	653.359	-1.00004	-1.00052	-3.07334	-0.837864	-0.837864	11	-0.23274	0	0.23274	0.000000000000000E+000	0.23274	0.0000000E+000	0.000000000000000E+000	0.00307493
2	0	0	1	0	0	0	660.259	-1.00004	-1.0005	-3.1572	-0.859449	-0.859449	11	-0.238736	0	0.238736	0.000000000000000E+000	0.238736	0.0000000E+000	0.000000000000000E+000	0.00315878
2	0	0	1	0	0	0	667.159	-1.00004	-1.00035	-3.17913	-0.881484	-0.881484	11	-0.244857	0	0.244857	0.000000000000000E+000	0.244857	0.0000000E+000	0.000000000000000E+000	0.00318023
2	0	0	1	0	0	0	674.059	-1.00004	-1.00035	-3.1999	-0.903558	-0.903558	11	-0.250988	0	0.250988	0.000000000000000E+000	0.250988	0.0000000E+000	0.000000000000000E+000	0.00320101
2	0	0	1	0	0	0	680.959	-1.00004	-1.00042	-3.21321	-0.925754	-0.925754	11	-0.257154	0	0.257154	0.000000000000000E+000	0.257154	0.0000000E+000	0.000000000000000E+000	0.00321457
2	0	0	1	0	0	0	687.859	-1.00004	-1.00031	-4.02839	-0.952739	-0.952739	11	-0.26465	0	0.26465	0.000000000000000E+000	0.26465	0.0000000E+000	0.000000000000000E+000	0.00402964
2	0	0	1	0	0	0	694.759	-1.00004	-1.00059	-4.10508	-0.980865	-0.980865	11	-0.272463	0	0.272463	0.000000000000000E+000	0.272463	0.0000000E+000	0.000000000000000E+000	0.00410752
2	0	0	1	0	0	0	701.659	-1.00004	-1.0004	-4.05899	-1.00893	-1.00893	11	-0.280258	0	0.280258	0.000000000000000E+000	0.280258	0.0000000E+000	0.000000000000000E+000	0.00406062
2	0	0	1	0	0	0	708.559	-1.00004	-1.00054	-4.00439	-1.03681	-1.03681	11	-0.288002	0	0.288002	0.000000000000000E+000	0.288002	0.0000000E+000	0.000000000000000E+000	0.00400654
2	0	0	1	0	0	0	715.459	-1.00004	-1.00033	-4.03092	-1.06456	-1.06456	11	-0.295712	0	0.295712	0.000000000000000E+000	0.295712	0.0000000E+000	0.000000000000000E+000	0.00403224
2	0	0	1	0	0	0	722.359	-1.00004	-1.00035	-3.96424	-1.09236	-1.09236	11	-0.303433	0	0.303433	0.000000000000000E+000	0.303433	0.0000000E+000	0.000000000000000E+000	0.00396562
2	0	0	1	0	0	0	729.259	-1.00004	-1.00038	-3.96092	-1.11973	-1.11973	11	-0.311036	0	0.311036	0.000000000000000E+000	0.311036	0.0000000E+000	0.000000000000000E+000	0.00396244
2	0	0	1	0	0	0	730.896	-1.00004	-1.00037	-3.98162	-1.12624	-1.12624	11	-0.312844	0	0.312844	0.000000000000000E+000	0.312844	0.0000000E+000	0.000000000000000E+000	0.00398307