File: ZnPVAECH_1 04-22-22-Zn -1 PVA ECH 1600 rpm K-L RDE1 gc_02_CA_C05.mpt
EC-Lab ASCII FILE
Nb header lines : 63

Chronoamperometry / Chronocoulometry

Run on channel : 5 (SN 6729)
User :
CE vs. WE compliance from -10 V to 10 V
Electrode connection : standard
Potential control : Ewe
Ewe ctrl range : min = -2.50 V, max = 2.50 V
Safety Limits :
	Do not start on E overload
Acquisition started on : 04/04/2022 13:04:27.143
Technique started on : 04/04/2022 13:04:32.291
Loaded Setting File :  NONE
Saved on :
	File : 04-22-22-Zn PVA ECH 1600 rpm K-L RDE1 gc_02_CA_C05.mpr
	Directory : \\research-scb.egr.msu.edu\research-scb\Mindy\Koutecky Levich\Zn PVA\ECH\04-04-22\
	Host : 35.9.136.210
Device : VSP (SN 0012)
Address : 35.9.137.65
EC-Lab for windows v11.43 (software)
Internet server v11.40 (firmware)
Command interpretor v11.40 (firmware)
Electrode material : Au/Pd
Initial state :
Electrolyte : NaCl (0.2M)
Comments : Fe(CN)63-/Fe(CN)64- 5.10-3 M
Reference electrode : SCE Saturated Calomel Electrode (0.241 V)
Electrode surface area : 0.196 cm²
Characteristic mass : 0.001 g
Equivalent Weight : 0.000 g/eq.
Density : 0.000 g/cm3
Volume (V) : 0.001 cm³
Cycle Definition : Charge/Discharge alternance
Ei (V)              -1.000
vs.                 Ref
ti (h:m:s)          0:10:0.0000
Imax                pass
unit Imax           mA
Imin                pass
unit Imin           mA
dQM                 0.000
unit dQM            mA.h
record              <I>
dI                  5.000
unit dI             µA
dQ                  0.000
unit dQ             mA.h
dt (s)              0.1000
dta (s)             0.1000
E range min (V)     -2.500
E range max (V)     2.500
I Range             Auto
I Range min         Unset
I Range max         Unset
I Range init        Unset
Bandwidth           5
goto Ns'            0
nc cycles           0

mode	ox/red	error	control changes	Ns changes	counter inc.	Ns	time/s	control/V	Ewe/V	<I>/mA	dQ/C	(Q-Qo)/C	I Range	Q charge/discharge/mA.h	half cycle	Q discharge/mA.h	Q charge/mA.h	Capacity/mA.h	Efficiency/%	cycle number	P/W
2	0	0	1	0	0	0	5.1484	-1.00001	-0.999752	-7.21053	-0.000142367	-0.000142367	11	-3.95465e-05	0	3.95465e-05	0.000000000000000E+000	3.95465e-05	0.0000000E+000	0.000000000000000E+000	0.00720874
2	0	0	1	0	0	0	9.5484	-1.00001	-1.00048	-6.96764	-0.0308379	-0.0308379	11	-0.00856608	0	0.00856608	0.000000000000000E+000	0.00856608	0.0000000E+000	0.000000000000000E+000	0.00697096
2	0	0	1	0	0	0	13.9484	-1.00001	-1.00067	-6.94639	-0.0614437	-0.0614437	11	-0.0170677	0	0.0170677	0.000000000000000E+000	0.0170677	0.0000000E+000	0.000000000000000E+000	0.00695103
2	0	0	1	0	0	0	18.3484	-1.00001	-1.00013	-6.95698	-0.092067	-0.092067	11	-0.0255742	0	0.0255742	0.000000000000000E+000	0.0255742	0.0000000E+000	0.000000000000000E+000	0.00695791
2	0	0	1	0	0	0	22.7484	-1.00001	-1.00021	-6.62026	-0.121288	-0.121288	11	-0.0336911	0	0.0336911	0.000000000000000E+000	0.0336911	0.0000000E+000	0.000000000000000E+000	0.00662165
2	0	0	1	0	0	0	27.1484	-1.00001	-1.00025	-6.62972	-0.150433	-0.150433	11	-0.0417869	0	0.0417869	0.000000000000000E+000	0.0417869	0.0000000E+000	0.000000000000000E+000	0.00663136
2	0	0	1	0	0	0	31.5484	-1.00001	-1.00053	-6.28983	-0.179145	-0.179145	11	-0.0497625	0	0.0497625	0.000000000000000E+000	0.0497625	0.0000000E+000	0.000000000000000E+000	0.00629319
2	0	0	1	0	0	0	35.9484	-1.00001	-0.999924	-6.30337	-0.206887	-0.206887	11	-0.0574685	0	0.0574685	0.000000000000000E+000	0.0574685	0.0000000E+000	0.000000000000000E+000	0.00630289
2	0	0	1	0	0	0	40.3484	-1.00001	-1.0005	-6.30509	-0.234657	-0.234657	11	-0.0651825	0	0.0651825	0.000000000000000E+000	0.0651825	0.0000000E+000	0.000000000000000E+000	0.00630822
2	0	0	1	0	0	0	44.7484	-1.00001	-1.0004	-5.9581	-0.262263	-0.262263	11	-0.0728509	0	0.0728509	0.000000000000000E+000	0.0728509	0.0000000E+000	0.000000000000000E+000	0.00596049
2	0	0	1	0	0	0	49.1484	-1.00001	-1.00004	-5.41978	-0.286374	-0.286374	11	-0.0795484	0	0.0795484	0.000000000000000E+000	0.0795484	0.0000000E+000	0.000000000000000E+000	0.00541999
2	0	0	1	0	0	0	53.5484	-1.00001	-1.00032	-5.4047	-0.310283	-0.310283	11	-0.0861896	0	0.0861896	0.000000000000000E+000	0.0861896	0.0000000E+000	0.000000000000000E+000	0.00540645
2	0	0	1	0	0	0	57.9484	-1.00001	-1.00036	-5.42642	-0.334169	-0.334169	11	-0.0928247	0	0.0928247	0.000000000000000E+000	0.0928247	0.0000000E+000	0.000000000000000E+000	0.00542838
2	0	0	1	0	0	0	62.3484	-1.00001	-1.0001	-5.45299	-0.358038	-0.358038	11	-0.0994551	0	0.0994551	0.000000000000000E+000	0.0994551	0.0000000E+000	0.000000000000000E+000	0.00545351
2	0	0	1	0	0	0	66.7484	-1.00001	-1.00038	-4.9901	-0.381825	-0.381825	11	-0.106063	0	0.106063	0.000000000000000E+000	0.106063	0.0000000E+000	0.000000000000000E+000	0.00499201
2	0	0	1	0	0	0	71.1484	-1.00001	-1.00011	-4.64014	-0.402488	-0.402488	11	-0.111802	0	0.111802	0.000000000000000E+000	0.111802	0.0000000E+000	0.000000000000000E+000	0.00464067
2	0	0	1	0	0	0	75.5484	-1.00001	-1.00025	-4.65017	-0.423029	-0.423029	11	-0.117508	0	0.117508	0.000000000000000E+000	0.117508	0.0000000E+000	0.000000000000000E+000	0.00465132
2	0	0	1	0	0	0	79.9484	-1.00001	-1.00046	-4.65589	-0.44355	-0.44355	11	-0.123208	0	0.123208	0.000000000000000E+000	0.123208	0.0000000E+000	0.000000000000000E+000	0.00465803
2	0	0	1	0	0	0	84.3484	-1.00001	-1.00031	-3.89779	-0.461522	-0.461522	11	-0.1282	0	0.1282	0.000000000000000E+000	0.1282	0.0000000E+000	0.000000000000000E+000	0.00389898
2	0	0	1	0	0	0	88.7484	-1.00001	-1.0005	-3.90155	-0.478694	-0.478694	11	-0.132971	0	0.132971	0.000000000000000E+000	0.132971	0.0000000E+000	0.000000000000000E+000	0.00390348
2	0	0	1	0	0	0	93.1484	-1.00001	-1.00036	-3.91351	-0.495881	-0.495881	11	-0.137745	0	0.137745	0.000000000000000E+000	0.137745	0.0000000E+000	0.000000000000000E+000	0.00391493
2	0	0	1	0	0	0	97.5484	-1.00001	-1.00029	-3.36846	-0.51273	-0.51273	11	-0.142425	0	0.142425	0.000000000000000E+000	0.142425	0.0000000E+000	0.000000000000000E+000	0.00336942
2	0	0	1	0	0	0	101.948	-1.00001	-1.00048	-3.19687	-0.526849	-0.526849	11	-0.146347	0	0.146347	0.000000000000000E+000	0.146347	0.0000000E+000	0.000000000000000E+000	0.0031984
2	0	0	1	0	0	0	106.348	-1.00001	-1.00048	-3.1986	-0.540928	-0.540928	11	-0.150258	0	0.150258	0.000000000000000E+000	0.150258	0.0000000E+000	0.000000000000000E+000	0.00320012
2	0	0	1	0	0	0	110.748	-1.00001	-1.00036	-3.19488	-0.555008	-0.555008	11	-0.154169	0	0.154169	0.000000000000000E+000	0.154169	0.0000000E+000	0.000000000000000E+000	0.00319603
2	0	0	1	0	0	0	115.148	-1.00001	-1.0004	-3.19468	-0.569074	-0.569074	11	-0.158076	0	0.158076	0.000000000000000E+000	0.158076	0.0000000E+000	0.000000000000000E+000	0.00319596
2	0	0	1	0	0	0	119.548	-1.00001	-1.00038	-3.75019	-0.583691	-0.583691	11	-0.162136	0	0.162136	0.000000000000000E+000	0.162136	0.0000000E+000	0.000000000000000E+000	0.00375162
2	0	0	1	0	0	0	123.948	-1.00001	-1.00038	-3.76482	-0.600279	-0.600279	11	-0.166744	0	0.166744	0.000000000000000E+000	0.166744	0.0000000E+000	0.000000000000000E+000	0.00376625
2	0	0	1	0	0	0	128.348	-1.00001	-1.00023	-3.77325	-0.616873	-0.616873	11	-0.171354	0	0.171354	0.000000000000000E+000	0.171354	0.0000000E+000	0.000000000000000E+000	0.00377411
2	0	0	1	0	0	0	132.748	-1.00001	-1.00025	-3.75756	-0.633473	-0.633473	11	-0.175965	0	0.175965	0.000000000000000E+000	0.175965	0.0000000E+000	0.000000000000000E+000	0.00375849
2	0	0	1	0	0	0	137.148	-1.00001	-1.00025	-3.76119	-0.650009	-0.650009	11	-0.180558	0	0.180558	0.000000000000000E+000	0.180558	0.0000000E+000	0.000000000000000E+000	0.00376213
2	0	0	1	0	0	0	141.548	-1.00001	-1.00031	-4.66585	-0.669674	-0.669674	11	-0.18602	0	0.18602	0.000000000000000E+000	0.18602	0.0000000E+000	0.000000000000000E+000	0.00466728
2	0	0	1	0	0	0	145.948	-1.00001	-1.00034	-4.67403	-0.690093	-0.690093	11	-0.191693	0	0.191693	0.000000000000000E+000	0.191693	0.0000000E+000	0.000000000000000E+000	0.00467563
2	0	0	1	0	0	0	150.348	-1.00001	-1.00048	-4.66675	-0.710517	-0.710517	11	-0.197366	0	0.197366	0.000000000000000E+000	0.197366	0.0000000E+000	0.000000000000000E+000	0.00466897
2	0	0	1	0	0	0	154.748	-1.00001	-1.00055	-5.34749	-0.733277	-0.733277	11	-0.203688	0	0.203688	0.000000000000000E+000	0.203688	0.0000000E+000	0.000000000000000E+000	0.00535045
2	0	0	1	0	0	0	159.148	-1.00001	-1.0005	-5.35925	-0.756925	-0.756925	11	-0.210257	0	0.210257	0.000000000000000E+000	0.210257	0.0000000E+000	0.000000000000000E+000	0.00536191
2	0	0	1	0	0	0	163.548	-1.00001	-1.00046	-5.39479	-0.780569	-0.780569	11	-0.216825	0	0.216825	0.000000000000000E+000	0.216825	0.0000000E+000	0.000000000000000E+000	0.00539726
2	0	0	1	0	0	0	167.948	-1.00001	-1.00069	-5.38008	-0.804165	-0.804165	11	-0.223379	0	0.223379	0.000000000000000E+000	0.223379	0.0000000E+000	0.000000000000000E+000	0.00538378
2	0	0	1	0	0	0	172.348	-1.00001	-1.00057	-6.21416	-0.829382	-0.829382	11	-0.230384	0	0.230384	0.000000000000000E+000	0.230384	0.0000000E+000	0.000000000000000E+000	0.00621772
2	0	0	1	0	0	0	176.748	-1.00001	-1.00053	-6.21725	-0.856743	-0.856743	11	-0.237984	0	0.237984	0.000000000000000E+000	0.237984	0.0000000E+000	0.000000000000000E+000	0.00622057
2	0	0	1	0	0	0	181.148	-1.00001	-1.00025	-6.21913	-0.884096	-0.884096	11	-0.245582	0	0.245582	0.000000000000000E+000	0.245582	0.0000000E+000	0.000000000000000E+000	0.00622067
2	0	0	1	0	0	0	185.548	-1.00001	-1.00059	-6.20476	-0.911407	-0.911407	11	-0.253168	0	0.253168	0.000000000000000E+000	0.253168	0.0000000E+000	0.000000000000000E+000	0.00620843
2	0	0	1	0	0	0	189.948	-1.00001	-1.00036	-6.51998	-0.939579	-0.939579	11	-0.260994	0	0.260994	0.000000000000000E+000	0.260994	0.0000000E+000	0.000000000000000E+000	0.00652234
2	0	0	1	0	0	0	194.348	-1.00001	-1.00006	-6.49535	-0.968223	-0.968223	11	-0.268951	0	0.268951	0.000000000000000E+000	0.268951	0.0000000E+000	0.000000000000000E+000	0.00649572
2	0	0	1	0	0	0	198.748	-1.00001	-1.00025	-6.50378	-0.996832	-0.996832	11	-0.276898	0	0.276898	0.000000000000000E+000	0.276898	0.0000000E+000	0.000000000000000E+000	0.00650539
2	0	0	1	0	0	0	203.148	-1.00001	-1.00036	-6.51563	-1.02545	-1.02545	11	-0.284847	0	0.284847	0.000000000000000E+000	0.284847	0.0000000E+000	0.000000000000000E+000	0.00651799
2	0	0	1	0	0	0	207.548	-1.00001	-0.999962	-6.4856	-1.05406	-1.05406	11	-0.292795	0	0.292795	0.000000000000000E+000	0.292795	0.0000000E+000	0.000000000000000E+000	0.00648535
2	0	0	1	0	0	0	211.948	-1.00001	-1.00044	-6.49503	-1.08266	-1.08266	11	-0.30074	0	0.30074	0.000000000000000E+000	0.30074	0.0000000E+000	0.000000000000000E+000	0.00649788
2	0	0	1	0	0	0	216.348	-1.00001	-1.00073	-6.85471	-1.11143	-1.11143	11	-0.308732	0	0.308732	0.000000000000000E+000	0.308732	0.0000000E+000	0.000000000000000E+000	0.00685968
2	0	0	1	0	0	0	220.748	-1.00001	-1.00055	-6.80413	-1.14138	-1.14138	11	-0.317051	0	0.317051	0.000000000000000E+000	0.317051	0.0000000E+000	0.000000000000000E+000	0.0068079
2	0	0	1	0	0	0	225.148	-1.00001	-0.999904	-6.80627	-1.17133	-1.17133	11	-0.325369	0	0.325369	0.000000000000000E+000	0.325369	0.0000000E+000	0.000000000000000E+000	0.00680562
2	0	0	1	0	0	0	229.548	-1.00001	-1.00029	-6.80526	-1.20129	-1.20129	11	-0.333692	0	0.333692	0.000000000000000E+000	0.333692	0.0000000E+000	0.000000000000000E+000	0.00680721
2	0	0	1	0	0	0	233.948	-1.00001	-1.00032	-6.79906	-1.23121	-1.23121	11	-0.342004	0	0.342004	0.000000000000000E+000	0.342004	0.0000000E+000	0.000000000000000E+000	0.00680127
2	0	0	1	0	0	0	238.348	-1.00001	-1.00021	-6.77815	-1.26107	-1.26107	11	-0.350297	0	0.350297	0.000000000000000E+000	0.350297	0.0000000E+000	0.000000000000000E+000	0.00677957
2	0	0	1	0	0	0	242.748	-1.00001	-1.00078	-6.79511	-1.29091	-1.29091	11	-0.358587	0	0.358587	0.000000000000000E+000	0.358587	0.0000000E+000	0.000000000000000E+000	0.00680043
2	0	0	1	0	0	0	247.148	-1.00001	-1.00036	-6.77894	-1.32076	-1.32076	11	-0.366878	0	0.366878	0.000000000000000E+000	0.366878	0.0000000E+000	0.000000000000000E+000	0.0067814
2	0	0	1	0	0	0	251.548	-1.00001	-1.00032	-6.77617	-1.3506	-1.3506	11	-0.375166	0	0.375166	0.000000000000000E+000	0.375166	0.0000000E+000	0.000000000000000E+000	0.00677837
2	0	0	1	0	0	0	253.094	-1.00001	-1.00084	-6.75887	-1.36106	-1.36106	11	-0.378072	0	0.378072	0.000000000000000E+000	0.378072	0.0000000E+000	0.000000000000000E+000	0.00676454