File: ZnPVAGAECH_07 03-20-22-ZnGAPVA ECH-1600 rpm at -0_7V vs RHE RDE1_02_CA_C05(1).mpt
EC-Lab ASCII FILE
Nb header lines : 62

Chronoamperometry / Chronocoulometry

Run on channel : 5 (SN 6729)
User :
CE vs. WE compliance from -10 V to 10 V
Electrode connection : standard
Potential control : Ewe
Ewe ctrl range : min = -2.50 V, max = 2.50 V
Safety Limits :
	Do not start on E overload
Acquisition started on : 03/20/2022 14:08:37.437
Technique started on : 03/20/2022 14:08:42.585
Loaded Setting File :  NONE
Saved on :
	File : 03-20-22-ZnGAPVA  ECH-1600 rpm at -0_8V vs RHE RDE1_02_CA_C05.mpr
	Directory : \\research-scb.egr.msu.edu\research-scb\Mindy\Koutecky Levich\Zn GA PVA 001\ECH\03-20-22\
	Host : 35.9.136.210
Device : VSP (SN 0012)
Address : 35.9.137.65
EC-Lab for windows v11.43 (software)
Internet server v11.40 (firmware)
Command interpretor v11.40 (firmware)
Electrode material :
Initial state :
Electrolyte :
Comments :
Electrode surface area : 0.196 cm²
Characteristic mass : 0.001 g
Equivalent Weight : 0.000 g/eq.
Density : 0.000 g/cm3
Volume (V) : 0.001 cm³
Cycle Definition : Charge/Discharge alternance
Ei (V)              -0.700
vs.                 Ref
ti (h:m:s)          0:30:0.0000
Imax                pass
unit Imax           mA
Imin                pass
unit Imin           mA
dQM                 0.000
unit dQM            mA.h
record              <I>
dI                  5.000
unit dI             µA
dQ                  0.000
unit dQ             mA.h
dt (s)              0.1000
dta (s)             0.1000
E range min (V)     -2.500
E range max (V)     2.500
I Range             Auto
I Range min         Unset
I Range max         Unset
I Range init        Unset
Bandwidth           5
goto Ns'            0
nc cycles           0

mode	ox/red	error	control changes	Ns changes	counter inc.	Ns	time/s	control/V	Ewe/V	<I>/mA	dQ/C	(Q-Qo)/C	I Range	Q charge/discharge/mA.h	half cycle	Q discharge/mA.h	Q charge/mA.h	Capacity/mA.h	Efficiency/%	cycle number	P/W
2	0	0	0	0	0	0	5.1484	-0.700002	-0.700422	-2.28499	-9.68528e-05	-9.68528e-05	11	-2.69035e-05	0	2.69035e-05	0.000000000000000E+000	2.69035e-05	0.0000000E+000	0.000000000000000E+000	0.00160046
2	0	0	0	0	0	0	9.9484	-0.700002	-0.70048	-1.36078	-0.00765917	-0.00765917	11	-0.00212755	0	0.00212755	0.000000000000000E+000	0.00212755	0.0000000E+000	0.000000000000000E+000	0.000953197
2	0	0	0	0	0	0	14.7484	-0.700002	-0.700461	-1.31368	-0.0140359	-0.0140359	11	-0.00389887	0	0.00389887	0.000000000000000E+000	0.00389887	0.0000000E+000	0.000000000000000E+000	0.000920178
2	0	0	0	0	0	0	19.5484	-0.700002	-0.700232	-1.30165	-0.020311	-0.020311	11	-0.00564193	0	0.00564193	0.000000000000000E+000	0.00564193	0.0000000E+000	0.000000000000000E+000	0.000911454
2	0	0	0	0	0	0	24.3484	-0.700002	-0.700537	-1.29083	-0.0265327	-0.0265327	11	-0.0073702	0	0.0073702	0.000000000000000E+000	0.0073702	0.0000000E+000	0.000000000000000E+000	0.000904272
2	0	0	0	0	0	0	29.1484	-0.700002	-0.700594	-1.28579	-0.0327147	-0.0327147	11	-0.00908742	0	0.00908742	0.000000000000000E+000	0.00908742	0.0000000E+000	0.000000000000000E+000	0.000900818
2	0	0	0	0	0	0	33.9484	-0.700002	-0.700461	-1.15469	-0.0385182	-0.0385182	11	-0.0106995	0	0.0106995	0.000000000000000E+000	0.0106995	0.0000000E+000	0.000000000000000E+000	0.000808816
2	0	0	0	0	0	0	38.7484	-0.700002	-0.70048	-1.14033	-0.044013	-0.044013	11	-0.0122258	0	0.0122258	0.000000000000000E+000	0.0122258	0.0000000E+000	0.000000000000000E+000	0.000798775
2	0	0	0	0	0	0	43.5484	-0.700002	-0.700365	-1.13797	-0.0494806	-0.0494806	11	-0.0137446	0	0.0137446	0.000000000000000E+000	0.0137446	0.0000000E+000	0.000000000000000E+000	0.000796995
2	0	0	0	0	0	0	48.3484	-0.700002	-0.700499	-1.12729	-0.0549436	-0.0549436	11	-0.0152621	0	0.0152621	0.000000000000000E+000	0.0152621	0.0000000E+000	0.000000000000000E+000	0.000789665
2	0	0	0	0	0	0	53.1484	-0.700002	-0.700499	-1.05623	-0.0601149	-0.0601149	11	-0.0166986	0	0.0166986	0.000000000000000E+000	0.0166986	0.0000000E+000	0.000000000000000E+000	0.000739889
2	0	0	0	0	0	0	57.9484	-0.700002	-0.70048	-1.05025	-0.0651708	-0.0651708	11	-0.018103	0	0.018103	0.000000000000000E+000	0.018103	0.0000000E+000	0.000000000000000E+000	0.000735679
2	0	0	0	0	0	0	62.7484	-0.700002	-0.700652	-1.05065	-0.0702135	-0.0702135	11	-0.0195038	0	0.0195038	0.000000000000000E+000	0.0195038	0.0000000E+000	0.000000000000000E+000	0.000736139
2	0	0	0	0	0	0	67.5484	-0.700002	-0.700442	-1.05003	-0.0752541	-0.0752541	11	-0.0209039	0	0.0209039	0.000000000000000E+000	0.0209039	0.0000000E+000	0.000000000000000E+000	0.000735486
2	0	0	0	0	0	0	72.3484	-0.700002	-0.700518	-0.991444	-0.080233	-0.080233	11	-0.0222869	0	0.0222869	0.000000000000000E+000	0.0222869	0.0000000E+000	0.000000000000000E+000	0.000694525
2	0	0	0	0	0	0	77.1484	-0.700002	-0.700461	-0.938147	-0.0848241	-0.0848241	11	-0.0235622	0	0.0235622	0.000000000000000E+000	0.0235622	0.0000000E+000	0.000000000000000E+000	0.000657135
2	0	0	0	0	0	0	81.9484	-0.700002	-0.700556	-0.930918	-0.0893002	-0.0893002	11	-0.0248056	0	0.0248056	0.000000000000000E+000	0.0248056	0.0000000E+000	0.000000000000000E+000	0.00065216
2	0	0	0	0	0	0	86.7484	-0.700002	-0.700556	-0.921939	-0.0937487	-0.0937487	11	-0.0260413	0	0.0260413	0.000000000000000E+000	0.0260413	0.0000000E+000	0.000000000000000E+000	0.00064587
2	0	0	0	0	0	0	91.5484	-0.700002	-0.700422	-0.885187	-0.0981143	-0.0981143	11	-0.027254	0	0.027254	0.000000000000000E+000	0.027254	0.0000000E+000	0.000000000000000E+000	0.000620005
2	0	0	0	0	0	0	96.3484	-0.700002	-0.700499	-0.863111	-0.102302	-0.102302	11	-0.0284172	0	0.0284172	0.000000000000000E+000	0.0284172	0.0000000E+000	0.000000000000000E+000	0.000604608
2	0	0	0	0	0	0	101.148	-0.700002	-0.700499	-0.858996	-0.106441	-0.106441	11	-0.029567	0	0.029567	0.000000000000000E+000	0.029567	0.0000000E+000	0.000000000000000E+000	0.000601726
2	0	0	0	0	0	0	105.948	-0.700002	-0.700422	-0.856915	-0.110565	-0.110565	11	-0.0307125	0	0.0307125	0.000000000000000E+000	0.0307125	0.0000000E+000	0.000000000000000E+000	0.000600203
2	0	0	0	0	0	0	110.748	-0.700002	-0.700461	-0.809846	-0.114532	-0.114532	11	-0.0318146	0	0.0318146	0.000000000000000E+000	0.0318146	0.0000000E+000	0.000000000000000E+000	0.000567265
2	0	0	0	0	0	0	115.548	-0.700002	-0.70048	-0.79806	-0.11839	-0.11839	11	-0.0328861	0	0.0328861	0.000000000000000E+000	0.0328861	0.0000000E+000	0.000000000000000E+000	0.000559025
2	0	0	0	0	0	0	120.348	-0.700002	-0.700442	-0.797818	-0.122224	-0.122224	11	-0.0339511	0	0.0339511	0.000000000000000E+000	0.0339511	0.0000000E+000	0.000000000000000E+000	0.000558825
2	0	0	0	0	0	0	125.148	-0.700002	-0.700499	-0.794071	-0.126054	-0.126054	11	-0.035015	0	0.035015	0.000000000000000E+000	0.035015	0.0000000E+000	0.000000000000000E+000	0.000556246
2	0	0	0	0	0	0	129.948	-0.700002	-0.700499	-0.758218	-0.129771	-0.129771	11	-0.0360475	0	0.0360475	0.000000000000000E+000	0.0360475	0.0000000E+000	0.000000000000000E+000	0.000531131
2	0	0	0	0	0	0	134.748	-0.700002	-0.700422	-0.754034	-0.133403	-0.133403	11	-0.0370563	0	0.0370563	0.000000000000000E+000	0.0370563	0.0000000E+000	0.000000000000000E+000	0.000528143
2	0	0	0	0	0	0	139.548	-0.700002	-0.700442	-0.74987	-0.13701	-0.13701	11	-0.0380584	0	0.0380584	0.000000000000000E+000	0.0380584	0.0000000E+000	0.000000000000000E+000	0.00052524
2	0	0	0	0	0	0	144.348	-0.700002	-0.700461	-0.745543	-0.140595	-0.140595	11	-0.0390541	0	0.0390541	0.000000000000000E+000	0.0390541	0.0000000E+000	0.000000000000000E+000	0.000522224
2	0	0	0	0	0	0	149.148	-0.700002	-0.700461	-0.776713	-0.144251	-0.144251	11	-0.0400696	0	0.0400696	0.000000000000000E+000	0.0400696	0.0000000E+000	0.000000000000000E+000	0.000544057
2	0	0	0	0	0	0	153.948	-0.700002	-0.700442	-0.784612	-0.148	-0.148	11	-0.0411112	0	0.0411112	0.000000000000000E+000	0.0411112	0.0000000E+000	0.000000000000000E+000	0.000549575
2	0	0	0	0	0	0	158.748	-0.700002	-0.700556	-0.785984	-0.151768	-0.151768	11	-0.0421577	0	0.0421577	0.000000000000000E+000	0.0421577	0.0000000E+000	0.000000000000000E+000	0.000550626
2	0	0	0	0	0	0	163.548	-0.700002	-0.700537	-0.783631	-0.15553	-0.15553	11	-0.0432028	0	0.0432028	0.000000000000000E+000	0.0432028	0.0000000E+000	0.000000000000000E+000	0.000548963
2	0	0	0	0	0	0	168.348	-0.700002	-0.700461	-0.825292	-0.159367	-0.159367	11	-0.0442685	0	0.0442685	0.000000000000000E+000	0.0442685	0.0000000E+000	0.000000000000000E+000	0.000578085
2	0	0	0	0	0	0	173.148	-0.700002	-0.70048	-0.838955	-0.163366	-0.163366	11	-0.0453793	0	0.0453793	0.000000000000000E+000	0.0453793	0.0000000E+000	0.000000000000000E+000	0.000587671
2	0	0	0	0	0	0	177.948	-0.700002	-0.700403	-0.843276	-0.167395	-0.167395	11	-0.0464987	0	0.0464987	0.000000000000000E+000	0.0464987	0.0000000E+000	0.000000000000000E+000	0.000590633
2	0	0	0	0	0	0	182.748	-0.700002	-0.700518	-0.843769	-0.171442	-0.171442	11	-0.0476228	0	0.0476228	0.000000000000000E+000	0.0476228	0.0000000E+000	0.000000000000000E+000	0.000591076
2	0	0	0	0	0	0	187.548	-0.700002	-0.700594	-0.882604	-0.175541	-0.175541	11	-0.0487613	0	0.0487613	0.000000000000000E+000	0.0487613	0.0000000E+000	0.000000000000000E+000	0.000618347
2	0	0	0	0	0	0	192.348	-0.700002	-0.700499	-0.897925	-0.179831	-0.179831	11	-0.0499531	0	0.0499531	0.000000000000000E+000	0.0499531	0.0000000E+000	0.000000000000000E+000	0.000628996
2	0	0	0	0	0	0	197.148	-0.700002	-0.70048	-0.898399	-0.184144	-0.184144	11	-0.051151	0	0.051151	0.000000000000000E+000	0.051151	0.0000000E+000	0.000000000000000E+000	0.000629311
2	0	0	0	0	0	0	201.948	-0.700002	-0.700499	-0.914456	-0.188457	-0.188457	11	-0.0523493	0	0.0523493	0.000000000000000E+000	0.0523493	0.0000000E+000	0.000000000000000E+000	0.000640575
2	0	0	0	0	0	0	206.748	-0.700002	-0.700422	-1.00656	-0.19316	-0.19316	11	-0.0536554	0	0.0536554	0.000000000000000E+000	0.0536554	0.0000000E+000	0.000000000000000E+000	0.000705015
2	0	0	0	0	0	0	211.548	-0.700002	-0.700422	-1.01258	-0.198005	-0.198005	11	-0.0550013	0	0.0550013	0.000000000000000E+000	0.0550013	0.0000000E+000	0.000000000000000E+000	0.000709237
2	0	0	0	0	0	0	216.348	-0.700002	-0.700442	-1.01464	-0.202868	-0.202868	11	-0.0563521	0	0.0563521	0.000000000000000E+000	0.0563521	0.0000000E+000	0.000000000000000E+000	0.000710693
2	0	0	0	0	0	0	221.148	-0.700002	-0.700632	-1.01355	-0.207734	-0.207734	11	-0.0577039	0	0.0577039	0.000000000000000E+000	0.0577039	0.0000000E+000	0.000000000000000E+000	0.000710128
2	0	0	0	0	0	0	225.948	-0.700002	-0.700442	-1.0147	-0.212601	-0.212601	11	-0.0590559	0	0.0590559	0.000000000000000E+000	0.0590559	0.0000000E+000	0.000000000000000E+000	0.000710736
2	0	0	0	0	0	0	230.748	-0.700002	-0.70048	-1.08432	-0.217689	-0.217689	11	-0.0604691	0	0.0604691	0.000000000000000E+000	0.0604691	0.0000000E+000	0.000000000000000E+000	0.000759545
2	0	0	0	0	0	0	235.548	-0.700002	-0.700537	-1.08859	-0.222913	-0.222913	11	-0.0619204	0	0.0619204	0.000000000000000E+000	0.0619204	0.0000000E+000	0.000000000000000E+000	0.000762594
2	0	0	0	0	0	0	240.348	-0.700002	-0.700518	-1.08835	-0.228136	-0.228136	11	-0.0633711	0	0.0633711	0.000000000000000E+000	0.0633711	0.0000000E+000	0.000000000000000E+000	0.000762411
2	0	0	0	0	0	0	245.148	-0.700002	-0.700556	-1.08554	-0.233352	-0.233352	11	-0.0648199	0	0.0648199	0.000000000000000E+000	0.0648199	0.0000000E+000	0.000000000000000E+000	0.000760481
2	0	0	0	0	0	0	249.948	-0.700002	-0.700442	-1.22173	-0.239012	-0.239012	11	-0.0663924	0	0.0663924	0.000000000000000E+000	0.0663924	0.0000000E+000	0.000000000000000E+000	0.000855751
2	0	0	0	0	0	0	254.748	-0.700002	-0.700365	-1.22065	-0.244878	-0.244878	11	-0.0680216	0	0.0680216	0.000000000000000E+000	0.0680216	0.0000000E+000	0.000000000000000E+000	0.000854902
2	0	0	0	0	0	0	259.548	-0.700002	-0.700518	-1.22085	-0.250736	-0.250736	11	-0.0696489	0	0.0696489	0.000000000000000E+000	0.0696489	0.0000000E+000	0.000000000000000E+000	0.000855226
2	0	0	0	0	0	0	264.348	-0.700002	-0.700442	-1.21873	-0.256587	-0.256587	11	-0.0712742	0	0.0712742	0.000000000000000E+000	0.0712742	0.0000000E+000	0.000000000000000E+000	0.00085365
2	0	0	0	0	0	0	268.795	-0.700002	-0.700442	-1.21597	-0.261998	-0.261998	11	-0.0727773	0	0.0727773	0.000000000000000E+000	0.0727773	0.0000000E+000	0.000000000000000E+000	0.000851714