File: ZnPVAGAECH_09 03-20-22-ZnGAPVA ECH-1600 rpm at -0_9V vs RHE RDE1_05_CA_C05(1).mpt
EC-Lab ASCII FILE
Nb header lines : 68

Chronoamperometry / Chronocoulometry

Run on channel : 5 (SN 6729)
User :
CE vs. WE compliance from -10 V to 10 V
Electrode connection : standard
Potential control : Ewe
Ewe ctrl range : min = -2.50 V, max = 2.50 V
Safety Limits :
	Do not start on E overload
Acquisition started on : 03/20/2022 14:08:37.437
Technique started on : 03/20/2022 14:20:48.434
Loaded Setting File :  NONE
Saved on :
	File : 03-20-22-ZnGAPVA  ECH-1600 rpm at -0_8V vs RHE RDE1_05_CA_C05.mpr
	Directory : \\research-scb.egr.msu.edu\research-scb\Mindy\Koutecky Levich\Zn GA PVA 001\ECH\03-20-22\
	Host : 35.9.136.210
Device : VSP (SN 0012)
Address : 35.9.137.65
EC-Lab for windows v11.43 (software)
Internet server v11.40 (firmware)
Command interpretor v11.40 (firmware)
Electrode material :
Initial state :
Electrolyte :
Comments :
Electrode surface area : 0.196 cm²
Characteristic mass : 0.001 g
Equivalent Weight : 0.000 g/eq.
Density : 0.000 g/cm3
Volume (V) : 0.001 cm³
Cycle Definition : Charge/Discharge alternance
Ei (V)              -0.800
vs.                 Ref
ti (h:m:s)          0:30:0.0000
Imax                pass
unit Imax           mA
Imin                pass
unit Imin           mA
dQM                 0.000
unit dQM            mA.h
record              <I>
dI                  5.000
unit dI             µA
dQ                  0.000
unit dQ             mA.h
dt (s)              0.1000
dta (s)             0.1000
E range min (V)     -2.500
E range max (V)     2.500
I Range             Auto
I Range min         Unset
I Range max         Unset
I Range init        Unset
Bandwidth           5
goto Ns'            0
nc cycles           0

Modify on : 03/20/2022 14:20
Ei (V)              -0.900

Modify on : 03/20/2022 14:21
Ei (V)              -0.800

mode	ox/red	error	control changes	Ns changes	counter inc.	Ns	time/s	control/V	Ewe/V	<I>/mA	dQ/C	(Q-Qo)/C	I Range	Q charge/discharge/mA.h	half cycle	Q discharge/mA.h	Q charge/mA.h	Capacity/mA.h	Efficiency/%	cycle number	P/W
2	0	0	0	0	0	0	730.997	-0.899992	-0.900537	-3.10438	-0.000310438	-0.000310438	11	-8.62329e-05	0	8.62329e-05	0.000000000000000E+000	8.62329e-05	0.0000000E+000	0.000000000000000E+000	0.00279561
2	0	0	0	0	0	0	737.397	-0.899992	-0.900499	-3.48632	-0.0225042	-0.0225042	11	-0.00625116	0	0.00625116	0.000000000000000E+000	0.00625116	0.0000000E+000	0.000000000000000E+000	0.00313942
2	0	0	0	0	0	0	743.797	-0.899992	-0.90048	-3.4674	-0.0447587	-0.0447587	11	-0.012433	0	0.012433	0.000000000000000E+000	0.012433	0.0000000E+000	0.000000000000000E+000	0.00312233
2	0	0	1	0	0	0	750.197	-0.800047	-0.80027	-2.77601	-0.0651895	-0.0651895	11	-0.0181082	0	0.0181082	0.000000000000000E+000	0.0181082	0.0000000E+000	0.000000000000000E+000	0.00222156
2	0	0	1	0	0	0	756.597	-0.800047	-0.800575	-2.77632	-0.0829981	-0.0829981	11	-0.023055	0	0.023055	0.000000000000000E+000	0.023055	0.0000000E+000	0.000000000000000E+000	0.00222265
2	0	0	1	0	0	0	762.997	-0.800047	-0.800442	-2.75296	-0.100693	-0.100693	11	-0.0279701	0	0.0279701	0.000000000000000E+000	0.0279701	0.0000000E+000	0.000000000000000E+000	0.00220358
2	0	0	1	0	0	0	769.397	-0.800047	-0.800327	-2.7308	-0.118241	-0.118241	11	-0.0328448	0	0.0328448	0.000000000000000E+000	0.0328448	0.0000000E+000	0.000000000000000E+000	0.00218553
2	0	0	1	0	0	0	775.797	-0.800047	-0.800633	-2.7057	-0.135639	-0.135639	11	-0.0376774	0	0.0376774	0.000000000000000E+000	0.0376774	0.0000000E+000	0.000000000000000E+000	0.00216627
2	0	0	1	0	0	0	782.197	-0.800047	-0.800423	-2.68135	-0.15287	-0.15287	11	-0.0424639	0	0.0424639	0.000000000000000E+000	0.0424639	0.0000000E+000	0.000000000000000E+000	0.00214621
2	0	0	1	0	0	0	788.597	-0.800047	-0.800499	-2.22839	-0.168851	-0.168851	11	-0.0469031	0	0.0469031	0.000000000000000E+000	0.0469031	0.0000000E+000	0.000000000000000E+000	0.00178382
2	0	0	1	0	0	0	794.997	-0.800047	-0.800384	-2.19414	-0.18298	-0.18298	11	-0.0508277	0	0.0508277	0.000000000000000E+000	0.0508277	0.0000000E+000	0.000000000000000E+000	0.00175615
2	0	0	1	0	0	0	801.397	-0.800047	-0.800365	-2.17879	-0.196974	-0.196974	11	-0.0547149	0	0.0547149	0.000000000000000E+000	0.0547149	0.0000000E+000	0.000000000000000E+000	0.00174382
2	0	0	1	0	0	0	807.797	-0.800047	-0.800365	-2.16892	-0.210883	-0.210883	11	-0.0585787	0	0.0585787	0.000000000000000E+000	0.0585787	0.0000000E+000	0.000000000000000E+000	0.00173593
2	0	0	1	0	0	0	814.197	-0.800047	-0.800499	-2.15612	-0.224723	-0.224723	11	-0.0624231	0	0.0624231	0.000000000000000E+000	0.0624231	0.0000000E+000	0.000000000000000E+000	0.00172597
2	0	0	1	0	0	0	820.597	-0.800047	-0.800365	-1.93669	-0.237621	-0.237621	11	-0.0660057	0	0.0660057	0.000000000000000E+000	0.0660057	0.0000000E+000	0.000000000000000E+000	0.00155006
2	0	0	1	0	0	0	826.997	-0.800047	-0.800575	-1.91971	-0.249959	-0.249959	11	-0.0694329	0	0.0694329	0.000000000000000E+000	0.0694329	0.0000000E+000	0.000000000000000E+000	0.00153687
2	0	0	1	0	0	0	833.397	-0.800047	-0.800499	-1.91151	-0.262224	-0.262224	11	-0.0728401	0	0.0728401	0.000000000000000E+000	0.0728401	0.0000000E+000	0.000000000000000E+000	0.00153016
2	0	0	1	0	0	0	839.797	-0.800047	-0.800594	-1.90785	-0.274436	-0.274436	11	-0.0762321	0	0.0762321	0.000000000000000E+000	0.0762321	0.0000000E+000	0.000000000000000E+000	0.00152741
2	0	0	1	0	0	0	846.197	-0.800047	-0.800556	-1.639	-0.286206	-0.286206	11	-0.0795018	0	0.0795018	0.000000000000000E+000	0.0795018	0.0000000E+000	0.000000000000000E+000	0.00131211
2	0	0	1	0	0	0	852.597	-0.800047	-0.800461	-1.58034	-0.29642	-0.29642	11	-0.082339	0	0.082339	0.000000000000000E+000	0.082339	0.0000000E+000	0.000000000000000E+000	0.001265
2	0	0	1	0	0	0	858.997	-0.800047	-0.800518	-1.57205	-0.306499	-0.306499	11	-0.0851385	0	0.0851385	0.000000000000000E+000	0.0851385	0.0000000E+000	0.000000000000000E+000	0.00125845
2	0	0	1	0	0	0	865.397	-0.800047	-0.800537	-1.56649	-0.316527	-0.316527	11	-0.0879242	0	0.0879242	0.000000000000000E+000	0.0879242	0.0000000E+000	0.000000000000000E+000	0.00125403
2	0	0	1	0	0	0	871.797	-0.800047	-0.800442	-1.49809	-0.326506	-0.326506	11	-0.090696	0	0.090696	0.000000000000000E+000	0.090696	0.0000000E+000	0.000000000000000E+000	0.00119914
2	0	0	1	0	0	0	878.197	-0.800047	-0.800442	-1.39183	-0.335546	-0.335546	11	-0.0932071	0	0.0932071	0.000000000000000E+000	0.0932071	0.0000000E+000	0.000000000000000E+000	0.00111408
2	0	0	1	0	0	0	884.597	-0.800047	-0.800518	-1.38263	-0.344422	-0.344422	11	-0.0956727	0	0.0956727	0.000000000000000E+000	0.0956727	0.0000000E+000	0.000000000000000E+000	0.00110682
2	0	0	1	0	0	0	890.997	-0.800047	-0.80048	-1.30476	-0.353237	-0.353237	11	-0.0981214	0	0.0981214	0.000000000000000E+000	0.0981214	0.0000000E+000	0.000000000000000E+000	0.00104443
2	0	0	1	0	0	0	897.397	-0.800047	-0.800499	-1.219	-0.361167	-0.361167	11	-0.100324	0	0.100324	0.000000000000000E+000	0.100324	0.0000000E+000	0.000000000000000E+000	0.000975809
2	0	0	1	0	0	0	903.797	-0.800047	-0.800403	-1.21303	-0.368945	-0.368945	11	-0.102485	0	0.102485	0.000000000000000E+000	0.102485	0.0000000E+000	0.000000000000000E+000	0.00097091
2	0	0	1	0	0	0	910.197	-0.800047	-0.800423	-1.20521	-0.376684	-0.376684	11	-0.104634	0	0.104634	0.000000000000000E+000	0.104634	0.0000000E+000	0.000000000000000E+000	0.00096468
2	0	0	1	0	0	0	916.597	-0.800047	-0.800403	-1.11737	-0.384229	-0.384229	11	-0.10673	0	0.10673	0.000000000000000E+000	0.10673	0.0000000E+000	0.000000000000000E+000	0.000894344
2	0	0	1	0	0	0	922.997	-0.800047	-0.800327	-1.09698	-0.391296	-0.391296	11	-0.108693	0	0.108693	0.000000000000000E+000	0.108693	0.0000000E+000	0.000000000000000E+000	0.000877944
2	0	0	1	0	0	0	929.397	-0.800047	-0.800442	-1.09415	-0.398306	-0.398306	11	-0.110641	0	0.110641	0.000000000000000E+000	0.110641	0.0000000E+000	0.000000000000000E+000	0.0008758
2	0	0	1	0	0	0	935.797	-0.800047	-0.800384	-1.17898	-0.40546	-0.40546	11	-0.112628	0	0.112628	0.000000000000000E+000	0.112628	0.0000000E+000	0.000000000000000E+000	0.000943638
2	0	0	1	0	0	0	942.197	-0.800047	-0.80048	-1.19346	-0.413087	-0.413087	11	-0.114747	0	0.114747	0.000000000000000E+000	0.114747	0.0000000E+000	0.000000000000000E+000	0.000955342
2	0	0	1	0	0	0	948.597	-0.800047	-0.800461	-1.19147	-0.420721	-0.420721	11	-0.116867	0	0.116867	0.000000000000000E+000	0.116867	0.0000000E+000	0.000000000000000E+000	0.000953722
2	0	0	1	0	0	0	954.997	-0.800047	-0.800461	-1.19256	-0.42834	-0.42834	11	-0.118983	0	0.118983	0.000000000000000E+000	0.118983	0.0000000E+000	0.000000000000000E+000	0.000954596
2	0	0	1	0	0	0	961.397	-0.800047	-0.800403	-1.24058	-0.435965	-0.435965	11	-0.121101	0	0.121101	0.000000000000000E+000	0.121101	0.0000000E+000	0.000000000000000E+000	0.000992967
2	0	0	1	0	0	0	967.797	-0.800047	-0.800403	-1.35479	-0.444522	-0.444522	11	-0.123478	0	0.123478	0.000000000000000E+000	0.123478	0.0000000E+000	0.000000000000000E+000	0.00108438
2	0	0	1	0	0	0	974.197	-0.800047	-0.800499	-1.35066	-0.453197	-0.453197	11	-0.125888	0	0.125888	0.000000000000000E+000	0.125888	0.0000000E+000	0.000000000000000E+000	0.0010812
2	0	0	1	0	0	0	980.597	-0.800047	-0.80048	-1.34909	-0.461838	-0.461838	11	-0.128288	0	0.128288	0.000000000000000E+000	0.128288	0.0000000E+000	0.000000000000000E+000	0.00107992
2	0	0	1	0	0	0	986.997	-0.800047	-0.800423	-1.49396	-0.470858	-0.470858	11	-0.130794	0	0.130794	0.000000000000000E+000	0.130794	0.0000000E+000	0.000000000000000E+000	0.0011958
2	0	0	1	0	0	0	993.397	-0.800047	-0.800518	-1.49679	-0.480456	-0.480456	11	-0.13346	0	0.13346	0.000000000000000E+000	0.13346	0.0000000E+000	0.000000000000000E+000	0.00119821
2	0	0	1	0	0	0	999.797	-0.800047	-0.800384	-1.49399	-0.490029	-0.490029	11	-0.136119	0	0.136119	0.000000000000000E+000	0.136119	0.0000000E+000	0.000000000000000E+000	0.00119577
2	0	0	1	0	0	0	1006.2	-0.800047	-0.800518	-1.50054	-0.499593	-0.499593	11	-0.138776	0	0.138776	0.000000000000000E+000	0.138776	0.0000000E+000	0.000000000000000E+000	0.00120121
2	0	0	1	0	0	0	1012.6	-0.800047	-0.800575	-1.7824	-0.510724	-0.510724	11	-0.141868	0	0.141868	0.000000000000000E+000	0.141868	0.0000000E+000	0.000000000000000E+000	0.00142694
2	0	0	1	0	0	0	1019	-0.800047	-0.800461	-1.78314	-0.52214	-0.52214	11	-0.145039	0	0.145039	0.000000000000000E+000	0.145039	0.0000000E+000	0.000000000000000E+000	0.00142733
2	0	0	1	0	0	0	1025.4	-0.800047	-0.800365	-1.781	-0.533544	-0.533544	11	-0.148207	0	0.148207	0.000000000000000E+000	0.148207	0.0000000E+000	0.000000000000000E+000	0.00142545
2	0	0	1	0	0	0	1031.8	-0.800047	-0.800556	-1.78009	-0.54494	-0.54494	11	-0.151372	0	0.151372	0.000000000000000E+000	0.151372	0.0000000E+000	0.000000000000000E+000	0.00142507
2	0	0	1	0	0	0	1038.2	-0.800047	-0.800499	-1.97484	-0.557148	-0.557148	11	-0.154763	0	0.154763	0.000000000000000E+000	0.154763	0.0000000E+000	0.000000000000000E+000	0.00158085
2	0	0	1	0	0	0	1044.6	-0.800047	-0.800613	-1.97759	-0.569812	-0.569812	11	-0.158281	0	0.158281	0.000000000000000E+000	0.158281	0.0000000E+000	0.000000000000000E+000	0.00158329
2	0	0	1	0	0	0	1051	-0.800047	-0.800499	-1.97165	-0.582448	-0.582448	11	-0.161791	0	0.161791	0.000000000000000E+000	0.161791	0.0000000E+000	0.000000000000000E+000	0.0015783
2	0	0	1	0	0	0	1057.4	-0.800047	-0.800442	-1.96378	-0.59506	-0.59506	11	-0.165294	0	0.165294	0.000000000000000E+000	0.165294	0.0000000E+000	0.000000000000000E+000	0.00157189
2	0	0	1	0	0	0	1063.8	-0.800047	-0.800461	-2.37678	-0.608099	-0.608099	11	-0.168916	0	0.168916	0.000000000000000E+000	0.168916	0.0000000E+000	0.000000000000000E+000	0.00190252
2	0	0	1	0	0	0	1070.2	-0.800047	-0.800461	-2.36153	-0.623207	-0.623207	11	-0.173113	0	0.173113	0.000000000000000E+000	0.173113	0.0000000E+000	0.000000000000000E+000	0.00189031
2	0	0	1	0	0	0	1076.6	-0.800047	-0.800499	-2.35736	-0.638304	-0.638304	11	-0.177307	0	0.177307	0.000000000000000E+000	0.177307	0.0000000E+000	0.000000000000000E+000	0.00188707
2	0	0	1	0	0	0	1083	-0.800047	-0.800403	-2.34788	-0.653359	-0.653359	11	-0.181489	0	0.181489	0.000000000000000E+000	0.181489	0.0000000E+000	0.000000000000000E+000	0.00187925
2	0	0	1	0	0	0	1089.4	-0.800047	-0.800461	-2.33713	-0.668336	-0.668336	11	-0.185649	0	0.185649	0.000000000000000E+000	0.185649	0.0000000E+000	0.000000000000000E+000	0.00187078
2	0	0	1	0	0	0	1089.99	-0.800047	-0.800537	-2.33379	-0.669711	-0.669711	11	-0.186031	0	0.186031	0.000000000000000E+000	0.186031	0.0000000E+000	0.000000000000000E+000	0.00186828