File: ZnPVAGAECH_08 03-23-22-ZnPVAGA ECH KL 100-1600 rpm at -0_8V vs RHE RDE3_03_CA_C05.mpt
EC-Lab ASCII FILE
Nb header lines : 69

Chronoamperometry / Chronocoulometry

Run on channel : 5 (SN 6729)
User :
CE vs. WE compliance from -10 V to 10 V
Electrode connection : standard
Potential control : Ewe
Ewe ctrl range : min = -2.50 V, max = 2.50 V
Safety Limits :
	Do not start on E overload
Acquisition started on : 03/23/2022 16:30:39.099
Technique started on : 03/23/2022 16:33:42.595
Loaded Setting File :  NONE
Saved on :
	File : 03-23-22-ZnPVAGA  ECH KL 100-1600 rpm at -0_8V vs RHE RDE3_03_CA_C05.mpr
	Directory : \\research-scb.egr.msu.edu\research-scb\Mindy\Koutecky Levich\Zn GA PVA 001\ECH\03-23-22\
	Host : 35.9.136.210
Device : VSP (SN 0012)
Address : 35.9.137.65
EC-Lab for windows v11.43 (software)
Internet server v11.40 (firmware)
Command interpretor v11.40 (firmware)
Electrode material : Au/Pd
Initial state :
Electrolyte : NaCl (0.2M)
Comments : Fe(CN)63-/Fe(CN)64- 5.10-3 M
Reference electrode : SCE Saturated Calomel Electrode (0.241 V)
Electrode surface area : 0.196 cm²
Characteristic mass : 0.001 g
Equivalent Weight : 0.000 g/eq.
Density : 0.000 g/cm3
Volume (V) : 0.001 cm³
Cycle Definition : Charge/Discharge alternance
Ei (V)              -0.700
vs.                 Ref
ti (h:m:s)          0:30:0.0000
Imax                pass
unit Imax           mA
Imin                pass
unit Imin           mA
dQM                 0.000
unit dQM            mA.h
record              <I>
dI                  5.000
unit dI             µA
dQ                  0.000
unit dQ             mA.h
dt (s)              0.1000
dta (s)             0.1000
E range min (V)     -2.500
E range max (V)     2.500
I Range             Auto
I Range min         Unset
I Range max         Unset
I Range init        Unset
Bandwidth           5
goto Ns'            0
nc cycles           0

Modify on : 03/23/2022 16:33
Ei (V)              -1.000

Modify on : 03/23/2022 16:35
Ei (V)              -0.900

mode	ox/red	error	control changes	Ns changes	counter inc.	Ns	time/s	control/V	Ewe/V	<I>/mA	dQ/C	(Q-Qo)/C	I Range	Q charge/discharge/mA.h	half cycle	Q discharge/mA.h	Q charge/mA.h	Capacity/mA.h	Efficiency/%	cycle number	P/W
2	0	0	1	0	0	0	183.496	-1.00001	-1.00034	-2.30313	-0.000102654	-0.000102654	11	-2.85149e-05	0	2.85149e-05	0.000000000000000E+000	2.85149e-05	0.0000000E+000	0.000000000000000E+000	0.00230392
2	0	0	1	0	0	0	189.396	-1.00001	-1.00029	-1.89893	-0.011336	-0.011336	11	-0.00314889	0	0.00314889	0.000000000000000E+000	0.00314889	0.0000000E+000	0.000000000000000E+000	0.00189947
2	0	0	1	0	0	0	195.296	-1.00001	-1.00021	-1.90989	-0.0225703	-0.0225703	11	-0.00626951	0	0.00626951	0.000000000000000E+000	0.00626951	0.0000000E+000	0.000000000000000E+000	0.0019103
2	0	0	1	0	0	0	201.196	-1.00001	-1.00031	-1.94231	-0.0339567	-0.0339567	11	-0.00943241	0	0.00943241	0.000000000000000E+000	0.00943241	0.0000000E+000	0.000000000000000E+000	0.0019429
2	0	0	1	0	0	0	207.096	-1.00001	-1.00029	-1.95033	-0.0454688	-0.0454688	11	-0.0126302	0	0.0126302	0.000000000000000E+000	0.0126302	0.0000000E+000	0.000000000000000E+000	0.00195089
2	0	0	1	0	0	0	212.996	-1.00001	-1.00036	-1.96113	-0.0570286	-0.0570286	11	-0.0158413	0	0.0158413	0.000000000000000E+000	0.0158413	0.0000000E+000	0.000000000000000E+000	0.00196184
2	0	0	1	0	0	0	218.896	-1.00001	-1.00013	-1.97355	-0.0686634	-0.0686634	11	-0.0190732	0	0.0190732	0.000000000000000E+000	0.0190732	0.0000000E+000	0.000000000000000E+000	0.00197382
2	0	0	1	0	0	0	224.796	-1.00001	-1.00038	-1.97941	-0.0803281	-0.0803281	11	-0.0223134	0	0.0223134	0.000000000000000E+000	0.0223134	0.0000000E+000	0.000000000000000E+000	0.00198016
2	0	0	1	0	0	0	230.696	-1.00001	-1.00048	-2.00582	-0.0921078	-0.0921078	11	-0.0255855	0	0.0255855	0.000000000000000E+000	0.0255855	0.0000000E+000	0.000000000000000E+000	0.00200678
2	0	0	1	0	0	0	236.596	-1.00001	-1.00032	-2.01792	-0.103964	-0.103964	11	-0.0288788	0	0.0288788	0.000000000000000E+000	0.0288788	0.0000000E+000	0.000000000000000E+000	0.00201857
2	0	0	1	0	0	0	242.496	-1.00001	-1.00021	-2.0193	-0.115821	-0.115821	11	-0.0321726	0	0.0321726	0.000000000000000E+000	0.0321726	0.0000000E+000	0.000000000000000E+000	0.00201972
2	0	0	1	0	0	0	248.396	-1.00001	-1.00038	-2.02563	-0.127727	-0.127727	11	-0.0354797	0	0.0354797	0.000000000000000E+000	0.0354797	0.0000000E+000	0.000000000000000E+000	0.0020264
2	0	0	1	0	0	0	254.296	-1.00001	-1.00032	-2.02718	-0.139703	-0.139703	11	-0.0388063	0	0.0388063	0.000000000000000E+000	0.0388063	0.0000000E+000	0.000000000000000E+000	0.00202784
2	0	0	1	0	0	0	260.196	-1.00001	-1.00036	-2.03681	-0.151691	-0.151691	11	-0.0421363	0	0.0421363	0.000000000000000E+000	0.0421363	0.0000000E+000	0.000000000000000E+000	0.00203755
2	0	0	0	0	0	0	266.096	-0.899966	-0.900382	-1.85817	-0.162537	-0.162537	11	-0.0451493	0	0.0451493	0.000000000000000E+000	0.0451493	0.0000000E+000	0.000000000000000E+000	0.00167306
2	0	0	0	0	0	0	271.996	-0.899966	-0.900401	-1.85697	-0.173502	-0.173502	11	-0.048195	0	0.048195	0.000000000000000E+000	0.048195	0.0000000E+000	0.000000000000000E+000	0.00167202
2	0	0	0	0	0	0	277.896	-0.899966	-0.900286	-1.85808	-0.184454	-0.184454	11	-0.0512373	0	0.0512373	0.000000000000000E+000	0.0512373	0.0000000E+000	0.000000000000000E+000	0.00167281
2	0	0	0	0	0	0	283.796	-0.899966	-0.900477	-1.72962	-0.195025	-0.195025	11	-0.0541735	0	0.0541735	0.000000000000000E+000	0.0541735	0.0000000E+000	0.000000000000000E+000	0.00155748
2	0	0	0	0	0	0	289.696	-0.899966	-0.900305	-1.72337	-0.205195	-0.205195	11	-0.0569986	0	0.0569986	0.000000000000000E+000	0.0569986	0.0000000E+000	0.000000000000000E+000	0.00155156
2	0	0	0	0	0	0	295.596	-0.899966	-0.900477	-1.65737	-0.215288	-0.215288	11	-0.0598023	0	0.0598023	0.000000000000000E+000	0.0598023	0.0000000E+000	0.000000000000000E+000	0.00149242
2	0	0	0	0	0	0	301.496	-0.899966	-0.900324	-1.6381	-0.224969	-0.224969	11	-0.0624915	0	0.0624915	0.000000000000000E+000	0.0624915	0.0000000E+000	0.000000000000000E+000	0.00147482
2	0	0	0	0	0	0	307.396	-0.899966	-0.90042	-1.62768	-0.234626	-0.234626	11	-0.0651739	0	0.0651739	0.000000000000000E+000	0.0651739	0.0000000E+000	0.000000000000000E+000	0.00146559
2	0	0	0	0	0	0	313.296	-0.899966	-0.900401	-1.48748	-0.243603	-0.243603	11	-0.0676676	0	0.0676676	0.000000000000000E+000	0.0676676	0.0000000E+000	0.000000000000000E+000	0.00133933
2	0	0	0	0	0	0	319.196	-0.899966	-0.900286	-1.48756	-0.252379	-0.252379	11	-0.0701054	0	0.0701054	0.000000000000000E+000	0.0701054	0.0000000E+000	0.000000000000000E+000	0.00133923
2	0	0	0	0	0	0	325.096	-0.899966	-0.900324	-1.48209	-0.261141	-0.261141	11	-0.0725391	0	0.0725391	0.000000000000000E+000	0.0725391	0.0000000E+000	0.000000000000000E+000	0.00133437
2	0	0	0	0	0	0	330.996	-0.899966	-0.90042	-1.38891	-0.269671	-0.269671	11	-0.0749086	0	0.0749086	0.000000000000000E+000	0.0749086	0.0000000E+000	0.000000000000000E+000	0.00125061
2	0	0	0	0	0	0	336.896	-0.899966	-0.900458	-1.376	-0.277811	-0.277811	11	-0.0771698	0	0.0771698	0.000000000000000E+000	0.0771698	0.0000000E+000	0.000000000000000E+000	0.00123903
2	0	0	0	0	0	0	342.796	-0.899966	-0.900401	-1.34828	-0.285921	-0.285921	11	-0.0794226	0	0.0794226	0.000000000000000E+000	0.0794226	0.0000000E+000	0.000000000000000E+000	0.00121399
2	0	0	0	0	0	0	348.696	-0.899966	-0.900362	-1.25465	-0.293504	-0.293504	11	-0.0815289	0	0.0815289	0.000000000000000E+000	0.0815289	0.0000000E+000	0.000000000000000E+000	0.00112964
2	0	0	0	0	0	0	354.596	-0.899966	-0.900382	-1.24571	-0.300895	-0.300895	11	-0.0835818	0	0.0835818	0.000000000000000E+000	0.0835818	0.0000000E+000	0.000000000000000E+000	0.00112161
2	0	0	0	0	0	0	360.496	-0.899966	-0.900439	-1.24119	-0.308234	-0.308234	11	-0.0856205	0	0.0856205	0.000000000000000E+000	0.0856205	0.0000000E+000	0.000000000000000E+000	0.00111761
2	0	0	0	0	0	0	366.396	-0.899966	-0.900286	-1.2243	-0.315538	-0.315538	11	-0.0876495	0	0.0876495	0.000000000000000E+000	0.0876495	0.0000000E+000	0.000000000000000E+000	0.00110222
2	0	0	0	0	0	0	372.296	-0.899966	-0.900305	-1.16402	-0.322539	-0.322539	11	-0.0895941	0	0.0895941	0.000000000000000E+000	0.0895941	0.0000000E+000	0.000000000000000E+000	0.00104797
2	0	0	0	0	0	0	378.196	-0.899966	-0.900343	-1.14324	-0.329331	-0.329331	11	-0.0914808	0	0.0914808	0.000000000000000E+000	0.0914808	0.0000000E+000	0.000000000000000E+000	0.00102931
2	0	0	0	0	0	0	384.096	-0.899966	-0.900343	-1.13168	-0.336047	-0.336047	11	-0.0933463	0	0.0933463	0.000000000000000E+000	0.0933463	0.0000000E+000	0.000000000000000E+000	0.0010189
2	0	0	0	0	0	0	389.996	-0.899966	-0.900305	-1.12139	-0.342702	-0.342702	11	-0.0951949	0	0.0951949	0.000000000000000E+000	0.0951949	0.0000000E+000	0.000000000000000E+000	0.00100959
2	0	0	0	0	0	0	395.896	-0.899966	-0.900439	-1.18653	-0.349495	-0.349495	11	-0.097082	0	0.097082	0.000000000000000E+000	0.097082	0.0000000E+000	0.000000000000000E+000	0.0010684
2	0	0	0	0	0	0	401.796	-0.899966	-0.900362	-1.19992	-0.356553	-0.356553	11	-0.0990425	0	0.0990425	0.000000000000000E+000	0.0990425	0.0000000E+000	0.000000000000000E+000	0.00108037
2	0	0	0	0	0	0	407.696	-0.899966	-0.900401	-1.19857	-0.363646	-0.363646	11	-0.101013	0	0.101013	0.000000000000000E+000	0.101013	0.0000000E+000	0.000000000000000E+000	0.00107919
2	0	0	0	0	0	0	413.596	-0.899966	-0.900401	-1.22067	-0.370729	-0.370729	11	-0.10298	0	0.10298	0.000000000000000E+000	0.10298	0.0000000E+000	0.000000000000000E+000	0.00109909
2	0	0	0	0	0	0	419.496	-0.899966	-0.900362	-1.33758	-0.378439	-0.378439	11	-0.105122	0	0.105122	0.000000000000000E+000	0.105122	0.0000000E+000	0.000000000000000E+000	0.0012043
2	0	0	0	0	0	0	425.396	-0.899966	-0.900343	-1.34574	-0.386363	-0.386363	11	-0.107323	0	0.107323	0.000000000000000E+000	0.107323	0.0000000E+000	0.000000000000000E+000	0.00121163
2	0	0	0	0	0	0	431.296	-0.899966	-0.900267	-1.34117	-0.394301	-0.394301	11	-0.109528	0	0.109528	0.000000000000000E+000	0.109528	0.0000000E+000	0.000000000000000E+000	0.00120741
2	0	0	0	0	0	0	437.196	-0.899966	-0.900286	-1.43971	-0.40246	-0.40246	11	-0.111795	0	0.111795	0.000000000000000E+000	0.111795	0.0000000E+000	0.000000000000000E+000	0.00129615
2	0	0	0	0	0	0	443.096	-0.899966	-0.900286	-1.45269	-0.410991	-0.410991	11	-0.114164	0	0.114164	0.000000000000000E+000	0.114164	0.0000000E+000	0.000000000000000E+000	0.00130784
2	0	0	0	0	0	0	448.996	-0.899966	-0.900439	-1.44947	-0.419554	-0.419554	11	-0.116543	0	0.116543	0.000000000000000E+000	0.116543	0.0000000E+000	0.000000000000000E+000	0.00130516
2	0	0	0	0	0	0	454.896	-0.899966	-0.900343	-1.49318	-0.428088	-0.428088	11	-0.118913	0	0.118913	0.000000000000000E+000	0.118913	0.0000000E+000	0.000000000000000E+000	0.00134438
2	0	0	0	0	0	0	460.796	-0.899966	-0.900286	-1.57933	-0.437303	-0.437303	11	-0.121473	0	0.121473	0.000000000000000E+000	0.121473	0.0000000E+000	0.000000000000000E+000	0.00142184
2	0	0	0	0	0	0	466.696	-0.899966	-0.900515	-1.57362	-0.446599	-0.446599	11	-0.124055	0	0.124055	0.000000000000000E+000	0.124055	0.0000000E+000	0.000000000000000E+000	0.00141707
2	0	0	0	0	0	0	472.596	-0.899966	-0.90042	-1.64417	-0.455976	-0.455976	11	-0.12666	0	0.12666	0.000000000000000E+000	0.12666	0.0000000E+000	0.000000000000000E+000	0.00148044
2	0	0	0	0	0	0	478.496	-0.899966	-0.900324	-1.64827	-0.465692	-0.465692	11	-0.129359	0	0.129359	0.000000000000000E+000	0.129359	0.0000000E+000	0.000000000000000E+000	0.00148398
2	0	0	0	0	0	0	484.396	-0.899966	-0.900401	-1.6485	-0.475421	-0.475421	11	-0.132061	0	0.132061	0.000000000000000E+000	0.132061	0.0000000E+000	0.000000000000000E+000	0.00148431
2	0	0	0	0	0	0	490.296	-0.899966	-0.90042	-1.75664	-0.485161	-0.485161	11	-0.134767	0	0.134767	0.000000000000000E+000	0.134767	0.0000000E+000	0.000000000000000E+000	0.00158171
2	0	0	0	0	0	0	496.196	-0.899966	-0.900172	-1.77194	-0.495583	-0.495583	11	-0.137662	0	0.137662	0.000000000000000E+000	0.137662	0.0000000E+000	0.000000000000000E+000	0.00159505
2	0	0	0	0	0	0	502.096	-0.899966	-0.900477	-1.76609	-0.506009	-0.506009	11	-0.140558	0	0.140558	0.000000000000000E+000	0.140558	0.0000000E+000	0.000000000000000E+000	0.00159033
2	0	0	0	0	0	0	507.996	-0.899966	-0.90042	-1.75961	-0.516407	-0.516407	11	-0.143446	0	0.143446	0.000000000000000E+000	0.143446	0.0000000E+000	0.000000000000000E+000	0.00158438
2	0	0	0	0	0	0	513.896	-0.899966	-0.900534	-1.75429	-0.526771	-0.526771	11	-0.146325	0	0.146325	0.000000000000000E+000	0.146325	0.0000000E+000	0.000000000000000E+000	0.0015798
2	0	0	0	0	0	0	514.248	-0.899966	-0.900362	-1.75559	-0.527388	-0.527388	11	-0.146497	0	0.146497	0.000000000000000E+000	0.146497	0.0000000E+000	0.000000000000000E+000	0.00158067