File: ZnPVAGAECH_1 03-20-22-ZnGAPVA ECH-1600 rpm at -1V vs RHE RDE3_02_CA_C05.mpt
EC-Lab ASCII FILE
Nb header lines : 71

Chronoamperometry / Chronocoulometry

Run on channel : 5 (SN 6729)
User :
CE vs. WE compliance from -10 V to 10 V
Electrode connection : standard
Potential control : Ewe
Ewe ctrl range : min = -2.50 V, max = 2.50 V
Safety Limits :
	Do not start on E overload
Acquisition started on : 03/20/2022 13:48:04.552
Technique started on : 03/20/2022 13:48:09.700
Loaded Setting File :  NONE
Saved on :
	File : 03-20-22-ZnGAPVA  ECH-1600 rpm at -0_8V vs RHE RDE3_02_CA_C05.mpr
	Directory : \\research-scb.egr.msu.edu\research-scb\Mindy\Koutecky Levich\Zn GA PVA 001\ECH\03-20-22\
	Host : 35.9.136.210
Device : VSP (SN 0012)
Address : 35.9.137.65
EC-Lab for windows v11.43 (software)
Internet server v11.40 (firmware)
Command interpretor v11.40 (firmware)
Electrode material :
Initial state :
Electrolyte :
Comments :
Electrode surface area : 0.196 cm²
Characteristic mass : 0.001 g
Equivalent Weight : 0.000 g/eq.
Density : 0.000 g/cm3
Volume (V) : 0.001 cm³
Cycle Definition : Charge/Discharge alternance
Ei (V)              -1.000
vs.                 Ref
ti (h:m:s)          0:30:0.0000
Imax                pass
unit Imax           mA
Imin                pass
unit Imin           mA
dQM                 0.000
unit dQM            mA.h
record              <I>
dI                  5.000
unit dI             µA
dQ                  0.000
unit dQ             mA.h
dt (s)              0.1000
dta (s)             0.1000
E range min (V)     -2.500
E range max (V)     2.500
I Range             Auto
I Range min         Unset
I Range max         Unset
I Range init        Unset
Bandwidth           5
goto Ns'            0
nc cycles           0

Modify on : 03/20/2022 13:48
Ei (V)              -0.900

Modify on : 03/20/2022 13:48
Ei (V)              -0.800

Modify on : 03/20/2022 13:48
Ei (V)              -0.700

mode	ox/red	error	control changes	Ns changes	counter inc.	Ns	time/s	control/V	Ewe/V	<I>/mA	dQ/C	(Q-Qo)/C	I Range	Q charge/discharge/mA.h	half cycle	Q discharge/mA.h	Q charge/mA.h	Capacity/mA.h	Efficiency/%	cycle number	P/W
2	0	0	0	0	0	0	5.1484	-1.00004	-1.00037	-8.91685	-0.000156381	-0.000156381	11	-4.34392e-05	0	4.34392e-05	0.000000000000000E+000	4.34392e-05	0.0000000E+000	0.000000000000000E+000	0.0089201
2	0	0	0	0	0	0	11.4484	-1.00004	-1.00069	-5.00754	-0.0368708	-0.0368708	11	-0.0102419	0	0.0102419	0.000000000000000E+000	0.0102419	0.0000000E+000	0.000000000000000E+000	0.005011
2	0	0	0	0	0	0	17.7484	-1.00004	-1.00054	-6.08316	-0.0727229	-0.0727229	11	-0.0202008	0	0.0202008	0.000000000000000E+000	0.0202008	0.0000000E+000	0.000000000000000E+000	0.00608643
2	0	0	0	0	0	0	24.0484	-1.00004	-1.00071	-6.3934	-0.112141	-0.112141	11	-0.0311503	0	0.0311503	0.000000000000000E+000	0.0311503	0.0000000E+000	0.000000000000000E+000	0.00639793
2	0	0	1	0	0	0	30.3484	-0.899992	-0.900556	-5.58589	-0.14678	-0.14678	11	-0.0407722	0	0.0407722	0.000000000000000E+000	0.0407722	0.0000000E+000	0.000000000000000E+000	0.00503041
2	0	0	1	0	0	0	36.6484	-0.899992	-0.900709	-5.70347	-0.182378	-0.182378	11	-0.0506607	0	0.0506607	0.000000000000000E+000	0.0506607	0.0000000E+000	0.000000000000000E+000	0.00513717
2	0	0	0	0	0	0	42.9484	-0.800047	-0.800117	-4.63996	-0.211941	-0.211941	11	-0.0588726	0	0.0588726	0.000000000000000E+000	0.0588726	0.0000000E+000	0.000000000000000E+000	0.00371251
2	0	0	0	0	0	0	49.2484	-0.800047	-0.80027	-4.69587	-0.241399	-0.241399	11	-0.0670553	0	0.0670553	0.000000000000000E+000	0.0670553	0.0000000E+000	0.000000000000000E+000	0.00375796
2	0	0	1	0	0	0	55.5484	-0.700002	-0.700422	-3.549	-0.26448	-0.26448	11	-0.0734666	0	0.0734666	0.000000000000000E+000	0.0734666	0.0000000E+000	0.000000000000000E+000	0.0024858
2	0	0	1	0	0	0	61.8484	-0.700002	-0.700499	-3.55164	-0.286846	-0.286846	11	-0.0796796	0	0.0796796	0.000000000000000E+000	0.0796796	0.0000000E+000	0.000000000000000E+000	0.00248792
2	0	0	1	0	0	0	68.1484	-0.700002	-0.700442	-3.28195	-0.308579	-0.308579	11	-0.0857164	0	0.0857164	0.000000000000000E+000	0.0857164	0.0000000E+000	0.000000000000000E+000	0.00229882
2	0	0	1	0	0	0	74.4484	-0.700002	-0.700747	-3.24371	-0.3291	-0.3291	11	-0.0914167	0	0.0914167	0.000000000000000E+000	0.0914167	0.0000000E+000	0.000000000000000E+000	0.00227302
2	0	0	1	0	0	0	80.7484	-0.700002	-0.700365	-3.05464	-0.349226	-0.349226	11	-0.0970072	0	0.0970072	0.000000000000000E+000	0.0970072	0.0000000E+000	0.000000000000000E+000	0.00213936
2	0	0	1	0	0	0	87.0484	-0.700002	-0.70048	-3.00432	-0.368256	-0.368256	11	-0.102293	0	0.102293	0.000000000000000E+000	0.102293	0.0000000E+000	0.000000000000000E+000	0.00210446
2	0	0	1	0	0	0	93.3484	-0.700002	-0.700518	-2.99032	-0.387136	-0.387136	11	-0.107538	0	0.107538	0.000000000000000E+000	0.107538	0.0000000E+000	0.000000000000000E+000	0.00209477
2	0	0	1	0	0	0	99.6484	-0.700002	-0.700537	-2.66067	-0.405292	-0.405292	11	-0.112581	0	0.112581	0.000000000000000E+000	0.112581	0.0000000E+000	0.000000000000000E+000	0.0018639
2	0	0	1	0	0	0	105.948	-0.700002	-0.70048	-2.55967	-0.421663	-0.421663	11	-0.117129	0	0.117129	0.000000000000000E+000	0.117129	0.0000000E+000	0.000000000000000E+000	0.001793
2	0	0	1	0	0	0	112.248	-0.700002	-0.700403	-2.53506	-0.437695	-0.437695	11	-0.121582	0	0.121582	0.000000000000000E+000	0.121582	0.0000000E+000	0.000000000000000E+000	0.00177556
2	0	0	1	0	0	0	118.548	-0.700002	-0.700518	-2.33638	-0.453115	-0.453115	11	-0.125865	0	0.125865	0.000000000000000E+000	0.125865	0.0000000E+000	0.000000000000000E+000	0.00163668
2	0	0	1	0	0	0	124.848	-0.700002	-0.70048	-2.27919	-0.467577	-0.467577	11	-0.129883	0	0.129883	0.000000000000000E+000	0.129883	0.0000000E+000	0.000000000000000E+000	0.00159652
2	0	0	1	0	0	0	131.148	-0.700002	-0.700422	-2.26049	-0.48182	-0.48182	11	-0.133839	0	0.133839	0.000000000000000E+000	0.133839	0.0000000E+000	0.000000000000000E+000	0.0015833
2	0	0	1	0	0	0	137.448	-0.700002	-0.700461	-2.04147	-0.49518	-0.49518	11	-0.13755	0	0.13755	0.000000000000000E+000	0.13755	0.0000000E+000	0.000000000000000E+000	0.00142997
2	0	0	1	0	0	0	143.748	-0.700002	-0.700575	-1.97448	-0.5078	-0.5078	11	-0.141056	0	0.141056	0.000000000000000E+000	0.141056	0.0000000E+000	0.000000000000000E+000	0.00138327
2	0	0	1	0	0	0	150.048	-0.700002	-0.700499	-1.94339	-0.520138	-0.520138	11	-0.144483	0	0.144483	0.000000000000000E+000	0.144483	0.0000000E+000	0.000000000000000E+000	0.00136135
2	0	0	1	0	0	0	156.348	-0.700002	-0.700365	-1.91746	-0.532305	-0.532305	11	-0.147863	0	0.147863	0.000000000000000E+000	0.147863	0.0000000E+000	0.000000000000000E+000	0.00134292
2	0	0	1	0	0	0	162.648	-0.700002	-0.700537	-1.90882	-0.544354	-0.544354	11	-0.151209	0	0.151209	0.000000000000000E+000	0.151209	0.0000000E+000	0.000000000000000E+000	0.0013372
2	0	0	1	0	0	0	168.948	-0.700002	-0.700499	-1.7994	-0.556184	-0.556184	11	-0.154496	0	0.154496	0.000000000000000E+000	0.154496	0.0000000E+000	0.000000000000000E+000	0.00126048
2	0	0	1	0	0	0	175.248	-0.700002	-0.700461	-1.72388	-0.567276	-0.567276	11	-0.157577	0	0.157577	0.000000000000000E+000	0.157577	0.0000000E+000	0.000000000000000E+000	0.00120751
2	0	0	1	0	0	0	181.548	-0.700002	-0.700537	-1.71353	-0.578125	-0.578125	11	-0.16059	0	0.16059	0.000000000000000E+000	0.16059	0.0000000E+000	0.000000000000000E+000	0.00120039
2	0	0	1	0	0	0	187.848	-0.700002	-0.700518	-1.70391	-0.588824	-0.588824	11	-0.163562	0	0.163562	0.000000000000000E+000	0.163562	0.0000000E+000	0.000000000000000E+000	0.00119362
2	0	0	1	0	0	0	194.148	-0.700002	-0.700613	-1.7131	-0.599494	-0.599494	11	-0.166526	0	0.166526	0.000000000000000E+000	0.166526	0.0000000E+000	0.000000000000000E+000	0.00120022
2	0	0	1	0	0	0	200.448	-0.700002	-0.700518	-1.81341	-0.610726	-0.610726	11	-0.169646	0	0.169646	0.000000000000000E+000	0.169646	0.0000000E+000	0.000000000000000E+000	0.00127033
2	0	0	1	0	0	0	206.748	-0.700002	-0.700499	-1.83161	-0.622118	-0.622118	11	-0.172811	0	0.172811	0.000000000000000E+000	0.172811	0.0000000E+000	0.000000000000000E+000	0.00128304
2	0	0	1	0	0	0	213.048	-0.700002	-0.700575	-1.84882	-0.633739	-0.633739	11	-0.176039	0	0.176039	0.000000000000000E+000	0.176039	0.0000000E+000	0.000000000000000E+000	0.00129523
2	0	0	1	0	0	0	219.348	-0.700002	-0.700422	-1.83411	-0.645358	-0.645358	11	-0.179266	0	0.179266	0.000000000000000E+000	0.179266	0.0000000E+000	0.000000000000000E+000	0.00128465
2	0	0	1	0	0	0	225.648	-0.700002	-0.70048	-1.85229	-0.656964	-0.656964	11	-0.18249	0	0.18249	0.000000000000000E+000	0.18249	0.0000000E+000	0.000000000000000E+000	0.00129749
2	0	0	1	0	0	0	231.948	-0.700002	-0.700442	-1.84279	-0.668613	-0.668613	11	-0.185726	0	0.185726	0.000000000000000E+000	0.185726	0.0000000E+000	0.000000000000000E+000	0.00129077
2	0	0	1	0	0	0	238.248	-0.700002	-0.700403	-2.02565	-0.680662	-0.680662	11	-0.189073	0	0.189073	0.000000000000000E+000	0.189073	0.0000000E+000	0.000000000000000E+000	0.00141877
2	0	0	1	0	0	0	244.548	-0.700002	-0.700327	-2.05922	-0.693566	-0.693566	11	-0.192657	0	0.192657	0.000000000000000E+000	0.192657	0.0000000E+000	0.000000000000000E+000	0.00144213
2	0	0	1	0	0	0	250.848	-0.700002	-0.700556	-2.0625	-0.706555	-0.706555	11	-0.196265	0	0.196265	0.000000000000000E+000	0.196265	0.0000000E+000	0.000000000000000E+000	0.0014449
2	0	0	1	0	0	0	257.148	-0.700002	-0.700594	-2.07062	-0.719561	-0.719561	11	-0.199878	0	0.199878	0.000000000000000E+000	0.199878	0.0000000E+000	0.000000000000000E+000	0.00145067
2	0	0	1	0	0	0	263.448	-0.700002	-0.700594	-2.30697	-0.733685	-0.733685	11	-0.203801	0	0.203801	0.000000000000000E+000	0.203801	0.0000000E+000	0.000000000000000E+000	0.00161625
2	0	0	1	0	0	0	269.748	-0.700002	-0.700537	-2.34781	-0.748378	-0.748378	11	-0.207883	0	0.207883	0.000000000000000E+000	0.207883	0.0000000E+000	0.000000000000000E+000	0.00164473
2	0	0	1	0	0	0	276.048	-0.700002	-0.700442	-2.35338	-0.763199	-0.763199	11	-0.212	0	0.212	0.000000000000000E+000	0.212	0.0000000E+000	0.000000000000000E+000	0.0016484
2	0	0	1	0	0	0	282.348	-0.700002	-0.70048	-2.6601	-0.778265	-0.778265	11	-0.216185	0	0.216185	0.000000000000000E+000	0.216185	0.0000000E+000	0.000000000000000E+000	0.00186334
2	0	0	1	0	0	0	288.648	-0.700002	-0.700461	-2.8309	-0.795879	-0.795879	11	-0.221078	0	0.221078	0.000000000000000E+000	0.221078	0.0000000E+000	0.000000000000000E+000	0.00198293
2	0	0	1	0	0	0	294.948	-0.700002	-0.700461	-2.84653	-0.813768	-0.813768	11	-0.226047	0	0.226047	0.000000000000000E+000	0.226047	0.0000000E+000	0.000000000000000E+000	0.00199388
2	0	0	1	0	0	0	301.248	-0.700002	-0.700518	-2.84991	-0.831714	-0.831714	11	-0.231032	0	0.231032	0.000000000000000E+000	0.231032	0.0000000E+000	0.000000000000000E+000	0.00199642
2	0	0	1	0	0	0	307.548	-0.700002	-0.700499	-3.08557	-0.850523	-0.850523	11	-0.236256	0	0.236256	0.000000000000000E+000	0.236256	0.0000000E+000	0.000000000000000E+000	0.00216144
2	0	0	1	0	0	0	313.848	-0.700002	-0.700575	-3.10608	-0.870041	-0.870041	11	-0.241678	0	0.241678	0.000000000000000E+000	0.241678	0.0000000E+000	0.000000000000000E+000	0.00217604
2	0	0	1	0	0	0	320.148	-0.700002	-0.700461	-3.10012	-0.889587	-0.889587	11	-0.247108	0	0.247108	0.000000000000000E+000	0.247108	0.0000000E+000	0.000000000000000E+000	0.00217151
2	0	0	1	0	0	0	326.448	-0.700002	-0.70027	-3.08796	-0.909085	-0.909085	11	-0.252524	0	0.252524	0.000000000000000E+000	0.252524	0.0000000E+000	0.000000000000000E+000	0.0021624
2	0	0	1	0	0	0	332.748	-0.700002	-0.700422	-3.46715	-0.930392	-0.930392	11	-0.258442	0	0.258442	0.000000000000000E+000	0.258442	0.0000000E+000	0.000000000000000E+000	0.00242847
2	0	0	1	0	0	0	339.048	-0.700002	-0.700499	-3.46246	-0.952216	-0.952216	11	-0.264504	0	0.264504	0.000000000000000E+000	0.264504	0.0000000E+000	0.000000000000000E+000	0.00242545
2	0	0	1	0	0	0	345.348	-0.700002	-0.700499	-3.45167	-0.973986	-0.973986	11	-0.270552	0	0.270552	0.000000000000000E+000	0.270552	0.0000000E+000	0.000000000000000E+000	0.00241789
2	0	0	1	0	0	0	351.648	-0.700002	-0.70048	-3.43713	-0.99569	-0.99569	11	-0.276581	0	0.276581	0.000000000000000E+000	0.276581	0.0000000E+000	0.000000000000000E+000	0.00240764
2	0	0	1	0	0	0	357.948	-0.700002	-0.700251	-3.42979	-1.01733	-1.01733	11	-0.282592	0	0.282592	0.000000000000000E+000	0.282592	0.0000000E+000	0.000000000000000E+000	0.00240171
2	0	0	1	0	0	0	359.529	-0.700002	-0.700442	-3.42724	-1.02275	-1.02275	11	-0.284097	0	0.284097	0.000000000000000E+000	0.284097	0.0000000E+000	0.000000000000000E+000	0.00240058