File: ZnPVAGAECH_1 03-20-22-ZnGAPVA ECH-1600 rpm at -1V vs RHE RDE2_03_CA_C05(1).mpt
EC-Lab ASCII FILE
Nb header lines : 77

Chronoamperometry / Chronocoulometry

Run on channel : 5 (SN 6729)
User :
CE vs. WE compliance from -10 V to 10 V
Electrode connection : standard
Potential control : Ewe
Ewe ctrl range : min = -2.50 V, max = 2.50 V
Safety Limits :
	Do not start on E overload
Acquisition started on : 03/20/2022 13:24:21.393
Technique started on : 03/20/2022 13:30:38.872
Loaded Setting File :  NONE
Saved on :
	File : 03-20-22-ZnGAPVA  ECH-1600 rpm at -0_8V vs RHE RDE2_03_CA_C05.mpr
	Directory : \\research-scb.egr.msu.edu\research-scb\Mindy\Koutecky Levich\Zn GA PVA 001\ECH\03-20-22\
	Host : 35.9.136.210
Device : VSP (SN 0012)
Address : 35.9.137.65
EC-Lab for windows v11.43 (software)
Internet server v11.40 (firmware)
Command interpretor v11.40 (firmware)
Electrode material :
Initial state :
Electrolyte :
Comments :
Electrode surface area : 0.001 cm²
Characteristic mass : 0.001 g
Equivalent Weight : 0.000 g/eq.
Density : 0.000 g/cm3
Volume (V) : 0.001 cm³
Cycle Definition : Charge/Discharge alternance
Ei (V)              -0.900
vs.                 Ref
ti (h:m:s)          0:30:0.0000
Imax                pass
unit Imax           mA
Imin                pass
unit Imin           mA
dQM                 0.000
unit dQM            mA.h
record              <I>
dI                  5.000
unit dI             µA
dQ                  0.000
unit dQ             mA.h
dt (s)              0.1000
dta (s)             0.1000
E range min (V)     -2.500
E range max (V)     2.500
I Range             Auto
I Range min         Unset
I Range max         Unset
I Range init        Unset
Bandwidth           5
goto Ns'            0
nc cycles           0

Modify on : 03/20/2022 13:24
Electrode surface area : 0.196 cm²

Modify on : 03/20/2022 13:31
Ei (V)              -0.700

Modify on : 03/20/2022 13:32
Ei (V)              -0.800

Modify on : 03/20/2022 13:32
Ei (V)              -0.750

Modify on : 03/20/2022 13:32
Ei (V)              -0.700

mode	ox/red	error	control changes	Ns changes	counter inc.	Ns	time/s	control/V	Ewe/V	<I>/mA	dQ/C	(Q-Qo)/C	I Range	Q charge/discharge/mA.h	half cycle	Q discharge/mA.h	Q charge/mA.h	Capacity/mA.h	Efficiency/%	cycle number	P/W
2	0	0	0	0	0	0	377.479	-0.899992	-0.900384	-6.93252	-0.000724178	-0.000724178	10	-0.000201161	0	0.000201161	0.000000000000000E+000	0.000201161	0.0000000E+000	0.000000000000000E+000	0.00624194
2	0	0	0	0	0	0	385.779	-0.899992	-0.900499	-5.61179	-0.0486346	-0.0486346	10	-0.0135096	0	0.0135096	0.000000000000000E+000	0.0135096	0.0000000E+000	0.000000000000000E+000	0.00505341
2	0	0	0	0	0	0	394.079	-0.899992	-0.900614	-5.58992	-0.0951675	-0.0951675	10	-0.0264354	0	0.0264354	0.000000000000000E+000	0.0264354	0.0000000E+000	0.000000000000000E+000	0.00503436
2	0	0	0	0	0	0	402.379	-0.899992	-0.900442	-5.58823	-0.14159	-0.14159	10	-0.0393306	0	0.0393306	0.000000000000000E+000	0.0393306	0.0000000E+000	0.000000000000000E+000	0.00503188
2	0	0	0	0	0	0	410.679	-0.899992	-0.900404	-5.55644	-0.187852	-0.187852	10	-0.0521811	0	0.0521811	0.000000000000000E+000	0.0521811	0.0000000E+000	0.000000000000000E+000	0.00500304
2	0	0	0	0	0	0	418.979	-0.899992	-0.900346	-5.5138	-0.233814	-0.233814	10	-0.0649484	0	0.0649484	0.000000000000000E+000	0.0649484	0.0000000E+000	0.000000000000000E+000	0.00496433
2	0	0	0	0	0	0	427.279	-0.899992	-0.900537	-5.48884	-0.279441	-0.279441	10	-0.0776226	0	0.0776226	0.000000000000000E+000	0.0776226	0.0000000E+000	0.000000000000000E+000	0.0049429
2	0	0	0	0	0	0	435.579	-0.899992	-0.900594	-5.45528	-0.324926	-0.324926	10	-0.0902572	0	0.0902572	0.000000000000000E+000	0.0902572	0.0000000E+000	0.000000000000000E+000	0.004913
2	0	0	0	0	0	0	443.879	-0.899992	-0.900461	-5.47669	-0.370269	-0.370269	10	-0.102852	0	0.102852	0.000000000000000E+000	0.102852	0.0000000E+000	0.000000000000000E+000	0.00493155
2	0	0	1	0	0	0	452.179	-0.700002	-0.700384	-3.20658	-0.399357	-0.399357	11	-0.110932	0	0.110932	0.000000000000000E+000	0.110932	0.0000000E+000	0.000000000000000E+000	0.00224584
2	0	0	0	0	0	0	460.479	-0.800047	-0.800518	-4.73019	-0.426038	-0.426038	11	-0.118344	0	0.118344	0.000000000000000E+000	0.118344	0.0000000E+000	0.000000000000000E+000	0.00378661
2	0	0	0	0	0	0	468.779	-0.800047	-0.800575	-4.33536	-0.462369	-0.462369	11	-0.128436	0	0.128436	0.000000000000000E+000	0.128436	0.0000000E+000	0.000000000000000E+000	0.00347078
2	0	0	1	0	0	0	477.079	-0.750025	-0.750384	-3.74366	-0.495867	-0.495867	11	-0.137741	0	0.137741	0.000000000000000E+000	0.137741	0.0000000E+000	0.000000000000000E+000	0.00280918
2	0	0	0	0	0	0	485.379	-0.700002	-0.700193	-3.1005	-0.526517	-0.526517	11	-0.146255	0	0.146255	0.000000000000000E+000	0.146255	0.0000000E+000	0.000000000000000E+000	0.00217095
2	0	0	0	0	0	0	493.679	-0.700002	-0.700403	-3.16112	-0.552686	-0.552686	11	-0.153524	0	0.153524	0.000000000000000E+000	0.153524	0.0000000E+000	0.000000000000000E+000	0.00221406
2	0	0	0	0	0	0	501.979	-0.700002	-0.700327	-3.1515	-0.57889	-0.57889	11	-0.160803	0	0.160803	0.000000000000000E+000	0.160803	0.0000000E+000	0.000000000000000E+000	0.00220708
2	0	0	0	0	0	0	510.279	-0.700002	-0.700594	-2.85637	-0.603834	-0.603834	11	-0.167732	0	0.167732	0.000000000000000E+000	0.167732	0.0000000E+000	0.000000000000000E+000	0.00200116
2	0	0	0	0	0	0	518.579	-0.700002	-0.700403	-2.81932	-0.627368	-0.627368	11	-0.174269	0	0.174269	0.000000000000000E+000	0.174269	0.0000000E+000	0.000000000000000E+000	0.00197466
2	0	0	0	0	0	0	526.879	-0.700002	-0.700632	-2.79723	-0.650665	-0.650665	11	-0.18074	0	0.18074	0.000000000000000E+000	0.18074	0.0000000E+000	0.000000000000000E+000	0.00195983
2	0	0	0	0	0	0	535.179	-0.700002	-0.700461	-2.78526	-0.673823	-0.673823	11	-0.187173	0	0.187173	0.000000000000000E+000	0.187173	0.0000000E+000	0.000000000000000E+000	0.00195097
2	0	0	0	0	0	0	543.479	-0.700002	-0.700442	-2.61032	-0.696503	-0.696503	11	-0.193473	0	0.193473	0.000000000000000E+000	0.193473	0.0000000E+000	0.000000000000000E+000	0.00182838
2	0	0	0	0	0	0	551.779	-0.700002	-0.700537	-2.57325	-0.717967	-0.717967	11	-0.199435	0	0.199435	0.000000000000000E+000	0.199435	0.0000000E+000	0.000000000000000E+000	0.00180266
2	0	0	0	0	0	0	560.079	-0.700002	-0.700403	-2.55909	-0.739254	-0.739254	11	-0.205348	0	0.205348	0.000000000000000E+000	0.205348	0.0000000E+000	0.000000000000000E+000	0.00179239
2	0	0	0	0	0	0	568.379	-0.700002	-0.700403	-2.28352	-0.759969	-0.759969	11	-0.211103	0	0.211103	0.000000000000000E+000	0.211103	0.0000000E+000	0.000000000000000E+000	0.00159938
2	0	0	0	0	0	0	576.679	-0.700002	-0.700422	-2.1979	-0.778463	-0.778463	11	-0.21624	0	0.21624	0.000000000000000E+000	0.21624	0.0000000E+000	0.000000000000000E+000	0.00153946
2	0	0	0	0	0	0	584.979	-0.700002	-0.700518	-2.1904	-0.796651	-0.796651	11	-0.221292	0	0.221292	0.000000000000000E+000	0.221292	0.0000000E+000	0.000000000000000E+000	0.00153441
2	0	0	0	0	0	0	593.279	-0.700002	-0.700556	-2.18132	-0.814801	-0.814801	11	-0.226334	0	0.226334	0.000000000000000E+000	0.226334	0.0000000E+000	0.000000000000000E+000	0.00152814
2	0	0	0	0	0	0	601.579	-0.700002	-0.70048	-1.99186	-0.831744	-0.831744	11	-0.23104	0	0.23104	0.000000000000000E+000	0.23104	0.0000000E+000	0.000000000000000E+000	0.00139526
2	0	0	0	0	0	0	609.879	-0.700002	-0.700518	-1.96396	-0.84815	-0.84815	11	-0.235597	0	0.235597	0.000000000000000E+000	0.235597	0.0000000E+000	0.000000000000000E+000	0.00137579
2	0	0	0	0	0	0	618.179	-0.700002	-0.700556	-1.87779	-0.864442	-0.864442	11	-0.240123	0	0.240123	0.000000000000000E+000	0.240123	0.0000000E+000	0.000000000000000E+000	0.0013155
2	0	0	0	0	0	0	626.479	-0.700002	-0.700537	-1.76687	-0.879335	-0.879335	11	-0.24426	0	0.24426	0.000000000000000E+000	0.24426	0.0000000E+000	0.000000000000000E+000	0.00123776
2	0	0	0	0	0	0	634.779	-0.700002	-0.700442	-1.73915	-0.893839	-0.893839	11	-0.248289	0	0.248289	0.000000000000000E+000	0.248289	0.0000000E+000	0.000000000000000E+000	0.00121817
2	0	0	0	0	0	0	643.079	-0.700002	-0.700461	-1.71314	-0.908139	-0.908139	11	-0.252261	0	0.252261	0.000000000000000E+000	0.252261	0.0000000E+000	0.000000000000000E+000	0.00119999
2	0	0	0	0	0	0	651.379	-0.700002	-0.700556	-1.58911	-0.921672	-0.921672	11	-0.25602	0	0.25602	0.000000000000000E+000	0.25602	0.0000000E+000	0.000000000000000E+000	0.00111326
2	0	0	0	0	0	0	659.679	-0.700002	-0.700461	-1.55448	-0.9347	-0.9347	11	-0.259639	0	0.259639	0.000000000000000E+000	0.259639	0.0000000E+000	0.000000000000000E+000	0.00108885
2	0	0	0	0	0	0	667.979	-0.700002	-0.700442	-1.59379	-0.947594	-0.947594	11	-0.263221	0	0.263221	0.000000000000000E+000	0.263221	0.0000000E+000	0.000000000000000E+000	0.00111636
2	0	0	0	0	0	0	676.279	-0.700002	-0.700575	-1.65155	-0.961151	-0.961151	11	-0.266986	0	0.266986	0.000000000000000E+000	0.266986	0.0000000E+000	0.000000000000000E+000	0.00115703
2	0	0	0	0	0	0	684.579	-0.700002	-0.700422	-1.67411	-0.974911	-0.974911	11	-0.270809	0	0.270809	0.000000000000000E+000	0.270809	0.0000000E+000	0.000000000000000E+000	0.00117258
2	0	0	0	0	0	0	692.879	-0.700002	-0.700346	-1.6783	-0.988817	-0.988817	11	-0.274671	0	0.274671	0.000000000000000E+000	0.274671	0.0000000E+000	0.000000000000000E+000	0.00117539
2	0	0	0	0	0	0	701.179	-0.700002	-0.700461	-1.88965	-1.00375	-1.00375	11	-0.278818	0	0.278818	0.000000000000000E+000	0.278818	0.0000000E+000	0.000000000000000E+000	0.00132363
2	0	0	0	0	0	0	709.479	-0.700002	-0.700556	-1.87795	-1.0194	-1.0194	11	-0.283167	0	0.283167	0.000000000000000E+000	0.283167	0.0000000E+000	0.000000000000000E+000	0.00131561
2	0	0	0	0	0	0	717.779	-0.700002	-0.700442	-2.07309	-1.03567	-1.03567	11	-0.287687	0	0.287687	0.000000000000000E+000	0.287687	0.0000000E+000	0.000000000000000E+000	0.00145208
2	0	0	0	0	0	0	726.079	-0.700002	-0.700537	-2.07755	-1.05296	-1.05296	11	-0.292488	0	0.292488	0.000000000000000E+000	0.292488	0.0000000E+000	0.000000000000000E+000	0.0014554
2	0	0	0	0	0	0	734.379	-0.700002	-0.700518	-2.45108	-1.07071	-1.07071	11	-0.297418	0	0.297418	0.000000000000000E+000	0.297418	0.0000000E+000	0.000000000000000E+000	0.00171703
2	0	0	0	0	0	0	742.679	-0.700002	-0.700442	-2.5553	-1.09172	-1.09172	11	-0.303255	0	0.303255	0.000000000000000E+000	0.303255	0.0000000E+000	0.000000000000000E+000	0.00178984
2	0	0	0	0	0	0	750.979	-0.700002	-0.700518	-2.56459	-1.11296	-1.11296	11	-0.309156	0	0.309156	0.000000000000000E+000	0.309156	0.0000000E+000	0.000000000000000E+000	0.00179654
2	0	0	0	0	0	0	759.279	-0.700002	-0.700632	-2.56327	-1.13426	-1.13426	11	-0.315073	0	0.315073	0.000000000000000E+000	0.315073	0.0000000E+000	0.000000000000000E+000	0.00179591
2	0	0	0	0	0	0	767.579	-0.700002	-0.700632	-2.70924	-1.15559	-1.15559	11	-0.320996	0	0.320996	0.000000000000000E+000	0.320996	0.0000000E+000	0.000000000000000E+000	0.00189818
2	0	0	0	0	0	0	775.879	-0.700002	-0.700461	-2.7731	-1.1785	-1.1785	11	-0.32736	0	0.32736	0.000000000000000E+000	0.32736	0.0000000E+000	0.000000000000000E+000	0.00194245
2	0	0	0	0	0	0	784.179	-0.700002	-0.700442	-2.77788	-1.20154	-1.20154	11	-0.333761	0	0.333761	0.000000000000000E+000	0.333761	0.0000000E+000	0.000000000000000E+000	0.00194574
2	0	0	0	0	0	0	792.479	-0.700002	-0.700422	-2.81121	-1.22475	-1.22475	11	-0.340208	0	0.340208	0.000000000000000E+000	0.340208	0.0000000E+000	0.000000000000000E+000	0.00196903
2	0	0	0	0	0	0	800.779	-0.700002	-0.700289	-2.81141	-1.24808	-1.24808	11	-0.34669	0	0.34669	0.000000000000000E+000	0.34669	0.0000000E+000	0.000000000000000E+000	0.0019688
2	0	0	0	0	0	0	809.079	-0.700002	-0.700575	-3.16713	-1.27381	-1.27381	11	-0.353837	0	0.353837	0.000000000000000E+000	0.353837	0.0000000E+000	0.000000000000000E+000	0.00221881
2	0	0	0	0	0	0	817.379	-0.700002	-0.700289	-3.15801	-1.30012	-1.30012	11	-0.361145	0	0.361145	0.000000000000000E+000	0.361145	0.0000000E+000	0.000000000000000E+000	0.00221152
2	0	0	0	0	0	0	825.679	-0.700002	-0.700518	-3.14582	-1.32627	-1.32627	11	-0.368409	0	0.368409	0.000000000000000E+000	0.368409	0.0000000E+000	0.000000000000000E+000	0.0022037
2	0	0	0	0	0	0	833.979	-0.700002	-0.700518	-3.12844	-1.3523	-1.3523	11	-0.375638	0	0.375638	0.000000000000000E+000	0.375638	0.0000000E+000	0.000000000000000E+000	0.00219153
2	0	0	0	0	0	0	842.279	-0.700002	-0.700499	-3.11114	-1.37818	-1.37818	11	-0.382827	0	0.382827	0.000000000000000E+000	0.382827	0.0000000E+000	0.000000000000000E+000	0.00217935
2	0	0	0	0	0	0	847.957	-0.700002	-0.70048	-3.0969	-1.3958	-1.3958	11	-0.387724	0	0.387724	0.000000000000000E+000	0.387724	0.0000000E+000	0.000000000000000E+000	0.00216931