File: ZnPVAECH_07 RDE 2 ECH 1600 rpm K-L.mpt
EC-Lab ASCII FILE
Nb header lines : 63

Chronoamperometry / Chronocoulometry

Run on channel : 5 (SN 6729)
User :
CE vs. WE compliance from -10 V to 10 V
Electrode connection : standard
Potential control : Ewe
Ewe ctrl range : min = -2.50 V, max = 2.50 V
Safety Limits :
	Do not start on E overload
Acquisition started on : 04/04/2022 13:39:42.231
Technique started on : 04/04/2022 13:39:47.379
Loaded Setting File :  NONE
Saved on :
	File : 04-22-22-Zn PVA ECH 1600 rpm K-L RDE2_02_CA_C05.mpr
	Directory : \\research-scb.egr.msu.edu\research-scb\Mindy\Koutecky Levich\Zn PVA\ECH\04-04-22\
	Host : 35.9.136.210
Device : VSP (SN 0012)
Address : 35.9.137.65
EC-Lab for windows v11.43 (software)
Internet server v11.40 (firmware)
Command interpretor v11.40 (firmware)
Electrode material : Au/Pd
Initial state :
Electrolyte : NaCl (0.2M)
Comments : Fe(CN)63-/Fe(CN)64- 5.10-3 M
Reference electrode : SCE Saturated Calomel Electrode (0.241 V)
Electrode surface area : 0.196 cm²
Characteristic mass : 0.001 g
Equivalent Weight : 0.000 g/eq.
Density : 0.000 g/cm3
Volume (V) : 0.001 cm³
Cycle Definition : Charge/Discharge alternance
Ei (V)              -1.000
vs.                 Ref
ti (h:m:s)          0:10:0.0000
Imax                pass
unit Imax           mA
Imin                pass
unit Imin           mA
dQM                 0.000
unit dQM            mA.h
record              <I>
dI                  5.000
unit dI             µA
dQ                  0.000
unit dQ             mA.h
dt (s)              0.1000
dta (s)             0.1000
E range min (V)     -2.500
E range max (V)     2.500
I Range             Auto
I Range min         Unset
I Range max         Unset
I Range init        Unset
Bandwidth           5
goto Ns'            0
nc cycles           0

mode	ox/red	error	control changes	Ns changes	counter inc.	Ns	time/s	control/V	Ewe/V	<I>/mA	dQ/C	(Q-Qo)/C	I Range	Q charge/discharge/mA.h	half cycle	Q discharge/mA.h	Q charge/mA.h	Capacity/mA.h	Efficiency/%	cycle number	P/W
2	0	0	0	0	0	0	5.1484	-1.00001	-1.00048	-5.28568	-0.000126588	-0.000126588	11	-3.51635e-05	0	3.51635e-05	0.000000000000000E+000	3.51635e-05	0.0000000E+000	0.000000000000000E+000	0.0052882
2	0	0	0	0	0	0	8.8484	-1.00001	-1.00034	-1.64609	-0.00753753	-0.00753753	11	-0.00209376	0	0.00209376	0.000000000000000E+000	0.00209376	0.0000000E+000	0.000000000000000E+000	0.00164665
2	0	0	0	0	0	0	12.5484	-1.00001	-1.00032	-1.60264	-0.0135076	-0.0135076	11	-0.0037521	0	0.0037521	0.000000000000000E+000	0.0037521	0.0000000E+000	0.000000000000000E+000	0.00160316
2	0	0	0	0	0	0	16.2484	-1.00001	-1.00038	-1.60949	-0.0194534	-0.0194534	11	-0.00540373	0	0.00540373	0.000000000000000E+000	0.00540373	0.0000000E+000	0.000000000000000E+000	0.00161011
2	0	0	0	0	0	0	19.9484	-1.00001	-1.00019	-1.61142	-0.0254163	-0.0254163	11	-0.0070601	0	0.0070601	0.000000000000000E+000	0.0070601	0.0000000E+000	0.000000000000000E+000	0.00161173
2	0	0	0	0	0	0	23.6484	-1.00001	-1.00038	-1.60392	-0.0313587	-0.0313587	11	-0.00871076	0	0.00871076	0.000000000000000E+000	0.00871076	0.0000000E+000	0.000000000000000E+000	0.00160453
2	0	0	0	0	0	0	27.3484	-1.00001	-1.00029	-1.60461	-0.0373132	-0.0373132	11	-0.0103648	0	0.0103648	0.000000000000000E+000	0.0103648	0.0000000E+000	0.000000000000000E+000	0.00160507
2	0	0	0	0	0	0	31.0484	-1.00001	-1.00027	-1.61949	-0.0432755	-0.0432755	11	-0.012021	0	0.012021	0.000000000000000E+000	0.012021	0.0000000E+000	0.000000000000000E+000	0.00161992
2	0	0	0	0	0	0	34.7484	-1.00001	-1.00034	-1.61052	-0.0492438	-0.0492438	11	-0.0136788	0	0.0136788	0.000000000000000E+000	0.0136788	0.0000000E+000	0.000000000000000E+000	0.00161108
2	0	0	0	0	0	0	38.4484	-1.00001	-1.00044	-1.46354	-0.0548907	-0.0548907	11	-0.0152474	0	0.0152474	0.000000000000000E+000	0.0152474	0.0000000E+000	0.000000000000000E+000	0.00146418
2	0	0	0	0	0	0	42.1484	-1.00001	-1.00042	-1.4577	-0.060296	-0.060296	11	-0.0167489	0	0.0167489	0.000000000000000E+000	0.0167489	0.0000000E+000	0.000000000000000E+000	0.00145831
2	0	0	0	0	0	0	45.8484	-1.00001	-1.00034	-1.46143	-0.0656965	-0.0656965	11	-0.018249	0	0.018249	0.000000000000000E+000	0.018249	0.0000000E+000	0.000000000000000E+000	0.00146193
2	0	0	0	0	0	0	49.5484	-1.00001	-1.00044	-1.40866	-0.0709459	-0.0709459	11	-0.0197072	0	0.0197072	0.000000000000000E+000	0.0197072	0.0000000E+000	0.000000000000000E+000	0.00140928
2	0	0	0	0	0	0	53.2484	-1.00001	-1.00038	-1.41563	-0.076171	-0.076171	11	-0.0211586	0	0.0211586	0.000000000000000E+000	0.0211586	0.0000000E+000	0.000000000000000E+000	0.00141617
2	0	0	0	0	0	0	56.9484	-1.00001	-1.00029	-1.42319	-0.0814181	-0.0814181	11	-0.0226161	0	0.0226161	0.000000000000000E+000	0.0226161	0.0000000E+000	0.000000000000000E+000	0.0014236
2	0	0	0	0	0	0	60.6484	-1.00001	-1.00027	-1.33874	-0.0865737	-0.0865737	11	-0.0240482	0	0.0240482	0.000000000000000E+000	0.0240482	0.0000000E+000	0.000000000000000E+000	0.0013391
2	0	0	0	0	0	0	64.3484	-1.00001	-1.00046	-1.3206	-0.09148	-0.09148	11	-0.0254111	0	0.0254111	0.000000000000000E+000	0.0254111	0.0000000E+000	0.000000000000000E+000	0.00132121
2	0	0	0	0	0	0	68.0484	-1.00001	-1.00032	-1.32141	-0.0963667	-0.0963667	11	-0.0267685	0	0.0267685	0.000000000000000E+000	0.0267685	0.0000000E+000	0.000000000000000E+000	0.00132184
2	0	0	0	0	0	0	71.7484	-1.00001	-1.00032	-1.33097	-0.101284	-0.101284	11	-0.0281344	0	0.0281344	0.000000000000000E+000	0.0281344	0.0000000E+000	0.000000000000000E+000	0.0013314
2	0	0	0	0	0	0	75.4484	-1.00001	-1.00034	-1.33315	-0.106211	-0.106211	11	-0.0295031	0	0.0295031	0.000000000000000E+000	0.0295031	0.0000000E+000	0.000000000000000E+000	0.00133361
2	0	0	0	0	0	0	79.1484	-1.00001	-1.00032	-1.33302	-0.11114	-0.11114	11	-0.0308723	0	0.0308723	0.000000000000000E+000	0.0308723	0.0000000E+000	0.000000000000000E+000	0.00133346
2	0	0	0	0	0	0	82.8484	-1.00001	-1.00038	-1.33402	-0.116071	-0.116071	11	-0.0322419	0	0.0322419	0.000000000000000E+000	0.0322419	0.0000000E+000	0.000000000000000E+000	0.00133453
2	0	0	0	0	0	0	86.5484	-1.00001	-1.00038	-1.28482	-0.120923	-0.120923	11	-0.0335896	0	0.0335896	0.000000000000000E+000	0.0335896	0.0000000E+000	0.000000000000000E+000	0.00128531
2	0	0	0	0	0	0	90.2484	-1.00001	-1.0004	-1.27546	-0.125668	-0.125668	11	-0.0349078	0	0.0349078	0.000000000000000E+000	0.0349078	0.0000000E+000	0.000000000000000E+000	0.00127597
2	0	0	0	0	0	0	93.9484	-1.00001	-1.00046	-1.25829	-0.130381	-0.130381	11	-0.036217	0	0.036217	0.000000000000000E+000	0.036217	0.0000000E+000	0.000000000000000E+000	0.00125887
2	0	0	0	0	0	0	97.6484	-1.00001	-1.00032	-1.20218	-0.134904	-0.134904	11	-0.0374734	0	0.0374734	0.000000000000000E+000	0.0374734	0.0000000E+000	0.000000000000000E+000	0.00120257
2	0	0	0	0	0	0	101.348	-1.00001	-1.00053	-1.19592	-0.139329	-0.139329	11	-0.0387024	0	0.0387024	0.000000000000000E+000	0.0387024	0.0000000E+000	0.000000000000000E+000	0.00119656
2	0	0	0	0	0	0	105.048	-1.00001	-1.00046	-1.34882	-0.143764	-0.143764	11	-0.0399346	0	0.0399346	0.000000000000000E+000	0.0399346	0.0000000E+000	0.000000000000000E+000	0.00134944
2	0	0	0	0	0	0	108.748	-1.00001	-1.00031	-1.15863	-0.148247	-0.148247	11	-0.0411798	0	0.0411798	0.000000000000000E+000	0.0411798	0.0000000E+000	0.000000000000000E+000	0.00115899
2	0	0	0	0	0	0	112.448	-1.00001	-1.00029	-1.12993	-0.152465	-0.152465	11	-0.0423514	0	0.0423514	0.000000000000000E+000	0.0423514	0.0000000E+000	0.000000000000000E+000	0.00113025
2	0	0	0	0	0	0	116.148	-1.00001	-1.00032	-1.12243	-0.156636	-0.156636	11	-0.0435101	0	0.0435101	0.000000000000000E+000	0.0435101	0.0000000E+000	0.000000000000000E+000	0.00112279
2	0	0	0	0	0	0	119.848	-1.00001	-1.0004	-1.17355	-0.160854	-0.160854	11	-0.0446817	0	0.0446817	0.000000000000000E+000	0.0446817	0.0000000E+000	0.000000000000000E+000	0.00117402
2	0	0	0	0	0	0	123.548	-1.00001	-1.0004	-1.17649	-0.165187	-0.165187	11	-0.0458852	0	0.0458852	0.000000000000000E+000	0.0458852	0.0000000E+000	0.000000000000000E+000	0.00117697
2	0	0	0	0	0	0	127.248	-1.00001	-1.0004	-1.18262	-0.169546	-0.169546	11	-0.0470961	0	0.0470961	0.000000000000000E+000	0.0470961	0.0000000E+000	0.000000000000000E+000	0.00118309
2	0	0	0	0	0	0	130.948	-1.00001	-1.00029	-1.1743	-0.173909	-0.173909	11	-0.0483081	0	0.0483081	0.000000000000000E+000	0.0483081	0.0000000E+000	0.000000000000000E+000	0.00117464
2	0	0	0	0	0	0	134.648	-1.00001	-1.00019	-1.17578	-0.178254	-0.178254	11	-0.049515	0	0.049515	0.000000000000000E+000	0.049515	0.0000000E+000	0.000000000000000E+000	0.001176
2	0	0	0	0	0	0	138.348	-1.00001	-1.00042	-1.24895	-0.182672	-0.182672	11	-0.0507422	0	0.0507422	0.000000000000000E+000	0.0507422	0.0000000E+000	0.000000000000000E+000	0.00124948
2	0	0	0	0	0	0	142.048	-1.00001	-1.00032	-1.27614	-0.18736	-0.18736	11	-0.0520443	0	0.0520443	0.000000000000000E+000	0.0520443	0.0000000E+000	0.000000000000000E+000	0.00127656
2	0	0	0	0	0	0	145.748	-1.00001	-1.00046	-1.27066	-0.192071	-0.192071	11	-0.0533529	0	0.0533529	0.000000000000000E+000	0.0533529	0.0000000E+000	0.000000000000000E+000	0.00127124
2	0	0	0	0	0	0	149.448	-1.00001	-1.00032	-1.42841	-0.196788	-0.196788	11	-0.0546633	0	0.0546633	0.000000000000000E+000	0.0546633	0.0000000E+000	0.000000000000000E+000	0.00142887
2	0	0	0	0	0	0	153.148	-1.00001	-1.00032	-1.42314	-0.201917	-0.201917	11	-0.0560882	0	0.0560882	0.000000000000000E+000	0.0560882	0.0000000E+000	0.000000000000000E+000	0.00142361
2	0	0	0	0	0	0	156.848	-1.00001	-1.00044	-1.38967	-0.207088	-0.207088	11	-0.0575243	0	0.0575243	0.000000000000000E+000	0.0575243	0.0000000E+000	0.000000000000000E+000	0.00139028
2	0	0	0	0	0	0	160.548	-1.00001	-1.00034	-1.3868	-0.212211	-0.212211	11	-0.0589474	0	0.0589474	0.000000000000000E+000	0.0589474	0.0000000E+000	0.000000000000000E+000	0.00138728
2	0	0	0	0	0	0	164.248	-1.00001	-1.00032	-1.42561	-0.217383	-0.217383	11	-0.0603841	0	0.0603841	0.000000000000000E+000	0.0603841	0.0000000E+000	0.000000000000000E+000	0.00142607
2	0	0	0	0	0	0	167.948	-1.00001	-1.00036	-1.55027	-0.223004	-0.223004	11	-0.0619457	0	0.0619457	0.000000000000000E+000	0.0619457	0.0000000E+000	0.000000000000000E+000	0.00155083
2	0	0	0	0	0	0	171.648	-1.00001	-1.00053	-1.54698	-0.228731	-0.228731	11	-0.0635365	0	0.0635365	0.000000000000000E+000	0.0635365	0.0000000E+000	0.000000000000000E+000	0.00154781
2	0	0	0	0	0	0	175.348	-1.00001	-1.00023	-1.56514	-0.234483	-0.234483	11	-0.0651342	0	0.0651342	0.000000000000000E+000	0.0651342	0.0000000E+000	0.000000000000000E+000	0.00156549
2	0	0	0	0	0	0	179.048	-1.00001	-1.00038	-1.55871	-0.24025	-0.24025	11	-0.0667362	0	0.0667362	0.000000000000000E+000	0.0667362	0.0000000E+000	0.000000000000000E+000	0.00155931
2	0	0	0	0	0	0	182.748	-1.00001	-1.00023	-1.68617	-0.246336	-0.246336	11	-0.0684266	0	0.0684266	0.000000000000000E+000	0.0684266	0.0000000E+000	0.000000000000000E+000	0.00168655
2	0	0	0	0	0	0	186.448	-1.00001	-1.00032	-1.6889	-0.252579	-0.252579	11	-0.0701609	0	0.0701609	0.000000000000000E+000	0.0701609	0.0000000E+000	0.000000000000000E+000	0.00168945
2	0	0	0	0	0	0	190.148	-1.00001	-1.00034	-1.6717	-0.258786	-0.258786	11	-0.071885	0	0.071885	0.000000000000000E+000	0.071885	0.0000000E+000	0.000000000000000E+000	0.00167227
2	0	0	0	0	0	0	193.848	-1.00001	-1.00015	-1.92923	-0.265761	-0.265761	11	-0.0738226	0	0.0738226	0.000000000000000E+000	0.0738226	0.0000000E+000	0.000000000000000E+000	0.00192953
2	0	0	0	0	0	0	197.548	-1.00001	-1.00032	-1.93449	-0.272924	-0.272924	11	-0.0758121	0	0.0758121	0.000000000000000E+000	0.0758121	0.0000000E+000	0.000000000000000E+000	0.00193512
2	0	0	0	0	0	0	201.248	-1.00001	-1.00057	-1.92055	-0.280051	-0.280051	11	-0.0777918	0	0.0777918	0.000000000000000E+000	0.0777918	0.0000000E+000	0.000000000000000E+000	0.00192165
2	0	0	0	0	0	0	204.948	-1.00001	-1.00032	-1.93694	-0.287174	-0.287174	11	-0.0797706	0	0.0797706	0.000000000000000E+000	0.0797706	0.0000000E+000	0.000000000000000E+000	0.00193756
2	0	0	0	0	0	0	208.648	-1.00001	-1.00055	-1.92485	-0.294308	-0.294308	11	-0.0817522	0	0.0817522	0.000000000000000E+000	0.0817522	0.0000000E+000	0.000000000000000E+000	0.00192592
2	0	0	0	0	0	0	212.259	-1.00001	-1.00025	-1.94687	-0.30129	-0.30129	11	-0.0836916	0	0.0836916	0.000000000000000E+000	0.0836916	0.0000000E+000	0.000000000000000E+000	0.00194735