File: ZnPVAGAECH_07 RDE 1 ECH 1600 rpm K-L.mpt
EC-Lab ASCII FILE
Nb header lines : 66

Chronoamperometry / Chronocoulometry

Run on channel : 5 (SN 6729)
User :
CE vs. WE compliance from -10 V to 10 V
Electrode connection : standard
Potential control : Ewe
Ewe ctrl range : min = -2.50 V, max = 2.50 V
Safety Limits :
	Do not start on E overload
Acquisition started on : 03/23/2022 15:50:02.769
Technique started on : 03/23/2022 15:57:51.603
Loaded Setting File :  NONE
Saved on :
	File : 03-23-22-ZnPVAGA  ECH KL 100-1600 rpm at -0_8V vs RHE RDE1_03_CA_C05.mpr
	Directory : \\research-scb.egr.msu.edu\research-scb\Mindy\Koutecky Levich\Zn GA PVA 001\ECH\03-23-22\
	Host : 35.9.136.210
Device : VSP (SN 0012)
Address : 35.9.137.65
EC-Lab for windows v11.43 (software)
Internet server v11.40 (firmware)
Command interpretor v11.40 (firmware)
Electrode material : Au/Pd
Initial state :
Electrolyte : NaCl (0.2M)
Comments : Fe(CN)63-/Fe(CN)64- 5.10-3 M
Reference electrode : SCE Saturated Calomel Electrode (0.241 V)
Electrode surface area : 0.196 cm²
Characteristic mass : 0.001 g
Equivalent Weight : 0.000 g/eq.
Density : 0.000 g/cm3
Volume (V) : 0.001 cm³
Cycle Definition : Charge/Discharge alternance
Ei (V)              -0.700
vs.                 Ref
ti (h:m:s)          0:30:0.0000
Imax                pass
unit Imax           mA
Imin                pass
unit Imin           mA
dQM                 0.000
unit dQM            mA.h
record              <I>
dI                  5.000
unit dI             µA
dQ                  0.000
unit dQ             mA.h
dt (s)              0.1000
dta (s)             0.1000
E range min (V)     -2.500
E range max (V)     2.500
I Range             Auto
I Range min         Unset
I Range max         Unset
I Range init        Unset
Bandwidth           5
goto Ns'            0
nc cycles           0

Modify on : 03/23/2022 15:57
Ei (V)              -0.650

mode	ox/red	error	control changes	Ns changes	counter inc.	Ns	time/s	control/V	Ewe/V	<I>/mA	dQ/C	(Q-Qo)/C	I Range	Q charge/discharge/mA.h	half cycle	Q discharge/mA.h	Q charge/mA.h	Capacity/mA.h	Efficiency/%	cycle number	P/W
2	0	0	1	0	0	0	468.834	-0.649954	-0.650362	-1.06194	-4.90695e-05	-4.90695e-05	12	-1.36304e-05	0	1.36304e-05	0.000000000000000E+000	1.36304e-05	0.0000000E+000	0.000000000000000E+000	0.000690644
2	0	0	1	0	0	0	472.234	-0.649954	-0.650305	-1.05246	-0.00362899	-0.00362899	12	-0.00100805	0	0.00100805	0.000000000000000E+000	0.00100805	0.0000000E+000	0.000000000000000E+000	0.000684418
2	0	0	1	0	0	0	475.634	-0.649954	-0.650343	-1.05137	-0.00720685	-0.00720685	12	-0.0020019	0	0.0020019	0.000000000000000E+000	0.0020019	0.0000000E+000	0.000000000000000E+000	0.000683751
2	0	0	1	0	0	0	479.034	-0.649954	-0.65019	-1.05055	-0.0107803	-0.0107803	12	-0.00299453	0	0.00299453	0.000000000000000E+000	0.00299453	0.0000000E+000	0.000000000000000E+000	0.000683057
2	0	0	1	0	0	0	482.434	-0.649954	-0.650152	-1.04878	-0.0143484	-0.0143484	12	-0.00398567	0	0.00398567	0.000000000000000E+000	0.00398567	0.0000000E+000	0.000000000000000E+000	0.000681866
2	0	0	1	0	0	0	485.834	-0.649954	-0.650229	-1.01358	-0.0178197	-0.0178197	12	-0.00494992	0	0.00494992	0.000000000000000E+000	0.00494992	0.0000000E+000	0.000000000000000E+000	0.00065906
2	0	0	1	0	0	0	489.234	-0.649954	-0.650496	-1.01288	-0.0212638	-0.0212638	12	-0.00590662	0	0.00590662	0.000000000000000E+000	0.00590662	0.0000000E+000	0.000000000000000E+000	0.000658873
2	0	0	1	0	0	0	492.634	-0.649954	-0.650171	-1.01123	-0.0247045	-0.0247045	12	-0.00686236	0	0.00686236	0.000000000000000E+000	0.00686236	0.0000000E+000	0.000000000000000E+000	0.00065747
2	0	0	1	0	0	0	496.034	-0.649954	-0.650496	-0.985693	-0.0280725	-0.0280725	12	-0.00779792	0	0.00779792	0.000000000000000E+000	0.00779792	0.0000000E+000	0.000000000000000E+000	0.000641189
2	0	0	1	0	0	0	499.434	-0.649954	-0.650324	-0.98529	-0.0314235	-0.0314235	12	-0.00872875	0	0.00872875	0.000000000000000E+000	0.00872875	0.0000000E+000	0.000000000000000E+000	0.000640758
2	0	0	1	0	0	0	502.834	-0.649954	-0.650305	-0.984177	-0.0347719	-0.0347719	12	-0.00965886	0	0.00965886	0.000000000000000E+000	0.00965886	0.0000000E+000	0.000000000000000E+000	0.000640015
2	0	0	1	0	0	0	506.234	-0.649954	-0.650305	-0.980731	-0.0381169	-0.0381169	12	-0.010588	0	0.010588	0.000000000000000E+000	0.010588	0.0000000E+000	0.000000000000000E+000	0.000637774
2	0	0	1	0	0	0	509.634	-0.649954	-0.650267	-0.933068	-0.0413291	-0.0413291	12	-0.0114803	0	0.0114803	0.000000000000000E+000	0.0114803	0.0000000E+000	0.000000000000000E+000	0.000606743
2	0	0	1	0	0	0	513.034	-0.649954	-0.650324	-0.931588	-0.0445014	-0.0445014	12	-0.0123615	0	0.0123615	0.000000000000000E+000	0.0123615	0.0000000E+000	0.000000000000000E+000	0.000605834
2	0	0	1	0	0	0	516.434	-0.649954	-0.650229	-0.933123	-0.047669	-0.047669	12	-0.0132414	0	0.0132414	0.000000000000000E+000	0.0132414	0.0000000E+000	0.000000000000000E+000	0.000606743
2	0	0	1	0	0	0	519.834	-0.649954	-0.650229	-0.930521	-0.0508347	-0.0508347	12	-0.0141208	0	0.0141208	0.000000000000000E+000	0.0141208	0.0000000E+000	0.000000000000000E+000	0.000605051
2	0	0	1	0	0	0	523.234	-0.649954	-0.650439	-0.92786	-0.0539984	-0.0539984	12	-0.0149996	0	0.0149996	0.000000000000000E+000	0.0149996	0.0000000E+000	0.000000000000000E+000	0.000603516
2	0	0	1	0	0	0	526.634	-0.649954	-0.6504	-0.893464	-0.0570664	-0.0570664	12	-0.0158518	0	0.0158518	0.000000000000000E+000	0.0158518	0.0000000E+000	0.000000000000000E+000	0.000581109
2	0	0	1	0	0	0	530.034	-0.649954	-0.650324	-0.896684	-0.0601098	-0.0601098	12	-0.0166972	0	0.0166972	0.000000000000000E+000	0.0166972	0.0000000E+000	0.000000000000000E+000	0.000583135
2	0	0	1	0	0	0	533.434	-0.649954	-0.650362	-0.893843	-0.0631498	-0.0631498	12	-0.0175416	0	0.0175416	0.000000000000000E+000	0.0175416	0.0000000E+000	0.000000000000000E+000	0.000581322
2	0	0	1	0	0	0	536.834	-0.649954	-0.650248	-0.894976	-0.0661922	-0.0661922	12	-0.0183867	0	0.0183867	0.000000000000000E+000	0.0183867	0.0000000E+000	0.000000000000000E+000	0.000581956
2	0	0	1	0	0	0	540.234	-0.649954	-0.650324	-0.896403	-0.0692336	-0.0692336	12	-0.0192316	0	0.0192316	0.000000000000000E+000	0.0192316	0.0000000E+000	0.000000000000000E+000	0.000582952
2	0	0	1	0	0	0	543.634	-0.649954	-0.650343	-0.850428	-0.0721685	-0.0721685	12	-0.0200468	0	0.0200468	0.000000000000000E+000	0.0200468	0.0000000E+000	0.000000000000000E+000	0.00055307
2	0	0	1	0	0	0	547.034	-0.649954	-0.650114	-0.84976	-0.0750644	-0.0750644	12	-0.0208512	0	0.0208512	0.000000000000000E+000	0.0208512	0.0000000E+000	0.000000000000000E+000	0.000552441
2	0	0	1	0	0	0	550.434	-0.649954	-0.65019	-0.850058	-0.0779579	-0.0779579	12	-0.021655	0	0.021655	0.000000000000000E+000	0.021655	0.0000000E+000	0.000000000000000E+000	0.0005527
2	0	0	1	0	0	0	553.834	-0.649954	-0.650324	-0.851398	-0.080852	-0.080852	12	-0.0224589	0	0.0224589	0.000000000000000E+000	0.0224589	0.0000000E+000	0.000000000000000E+000	0.000553685
2	0	0	1	0	0	0	557.234	-0.649954	-0.650286	-0.835078	-0.0837317	-0.0837317	12	-0.0232588	0	0.0232588	0.000000000000000E+000	0.0232588	0.0000000E+000	0.000000000000000E+000	0.00054304
2	0	0	1	0	0	0	560.634	-0.649954	-0.650286	-0.814886	-0.0865264	-0.0865264	12	-0.0240351	0	0.0240351	0.000000000000000E+000	0.0240351	0.0000000E+000	0.000000000000000E+000	0.000529909
2	0	0	1	0	0	0	564.034	-0.649954	-0.650381	-0.815467	-0.0893007	-0.0893007	12	-0.0248058	0	0.0248058	0.000000000000000E+000	0.0248058	0.0000000E+000	0.000000000000000E+000	0.000530365
2	0	0	1	0	0	0	567.434	-0.649954	-0.650305	-0.812862	-0.0920715	-0.0920715	12	-0.0255754	0	0.0255754	0.000000000000000E+000	0.0255754	0.0000000E+000	0.000000000000000E+000	0.000528608
2	0	0	1	0	0	0	570.834	-0.649954	-0.6504	-0.821188	-0.0948445	-0.0948445	12	-0.0263457	0	0.0263457	0.000000000000000E+000	0.0263457	0.0000000E+000	0.000000000000000E+000	0.000534101
2	0	0	1	0	0	0	574.234	-0.649954	-0.650324	-0.847071	-0.097704	-0.097704	12	-0.02714	0	0.02714	0.000000000000000E+000	0.02714	0.0000000E+000	0.000000000000000E+000	0.00055087
2	0	0	1	0	0	0	577.634	-0.649954	-0.650305	-0.848124	-0.100589	-0.100589	12	-0.0279413	0	0.0279413	0.000000000000000E+000	0.0279413	0.0000000E+000	0.000000000000000E+000	0.000551539
2	0	0	1	0	0	0	581.034	-0.649954	-0.650324	-0.8739	-0.103486	-0.103486	12	-0.0287462	0	0.0287462	0.000000000000000E+000	0.0287462	0.0000000E+000	0.000000000000000E+000	0.000568318
2	0	0	1	0	0	0	584.434	-0.649954	-0.650286	-0.893919	-0.106507	-0.106507	12	-0.0295852	0	0.0295852	0.000000000000000E+000	0.0295852	0.0000000E+000	0.000000000000000E+000	0.000581303
2	0	0	1	0	0	0	587.834	-0.649954	-0.650152	-0.889407	-0.109536	-0.109536	12	-0.0304266	0	0.0304266	0.000000000000000E+000	0.0304266	0.0000000E+000	0.000000000000000E+000	0.00057825
2	0	0	1	0	0	0	591.234	-0.649954	-0.650229	-0.891576	-0.112563	-0.112563	12	-0.0312675	0	0.0312675	0.000000000000000E+000	0.0312675	0.0000000E+000	0.000000000000000E+000	0.000579728
2	0	0	1	0	0	0	594.634	-0.649954	-0.6504	-0.913362	-0.115601	-0.115601	12	-0.0321113	0	0.0321113	0.000000000000000E+000	0.0321113	0.0000000E+000	0.000000000000000E+000	0.000594051
2	0	0	1	0	0	0	598.034	-0.649954	-0.650381	-0.920432	-0.118735	-0.118735	12	-0.032982	0	0.032982	0.000000000000000E+000	0.032982	0.0000000E+000	0.000000000000000E+000	0.000598632
2	0	0	1	0	0	0	601.434	-0.649954	-0.650324	-0.922147	-0.121872	-0.121872	12	-0.0338533	0	0.0338533	0.000000000000000E+000	0.0338533	0.0000000E+000	0.000000000000000E+000	0.000599694
2	0	0	1	0	0	0	604.834	-0.649954	-0.650229	-0.923009	-0.125003	-0.125003	12	-0.0347229	0	0.0347229	0.000000000000000E+000	0.0347229	0.0000000E+000	0.000000000000000E+000	0.000600167
2	0	0	1	0	0	0	608.234	-0.649954	-0.650439	-0.964031	-0.128189	-0.128189	12	-0.0356081	0	0.0356081	0.000000000000000E+000	0.0356081	0.0000000E+000	0.000000000000000E+000	0.000627043
2	0	0	1	0	0	0	611.634	-0.649954	-0.65021	-0.964487	-0.13147	-0.13147	12	-0.0365194	0	0.0365194	0.000000000000000E+000	0.0365194	0.0000000E+000	0.000000000000000E+000	0.000627118
2	0	0	1	0	0	0	615.034	-0.649954	-0.650152	-0.963584	-0.134746	-0.134746	12	-0.0374294	0	0.0374294	0.000000000000000E+000	0.0374294	0.0000000E+000	0.000000000000000E+000	0.000626476
2	0	0	1	0	0	0	618.434	-0.649954	-0.650095	-0.962597	-0.13802	-0.13802	12	-0.038339	0	0.038339	0.000000000000000E+000	0.038339	0.0000000E+000	0.000000000000000E+000	0.00062578
2	0	0	1	0	0	0	621.834	-0.649954	-0.64998	-0.960772	-0.14129	-0.14129	12	-0.0392472	0	0.0392472	0.000000000000000E+000	0.0392472	0.0000000E+000	0.000000000000000E+000	0.000624483
2	0	0	1	0	0	0	625.234	-0.649954	-0.65021	-0.959894	-0.144554	-0.144554	12	-0.040154	0	0.040154	0.000000000000000E+000	0.040154	0.0000000E+000	0.000000000000000E+000	0.000624132
2	0	0	1	0	0	0	628.634	-0.649954	-0.650171	-0.980811	-0.147862	-0.147862	12	-0.0410729	0	0.0410729	0.000000000000000E+000	0.0410729	0.0000000E+000	0.000000000000000E+000	0.000637695
2	0	0	1	0	0	0	632.034	-0.649954	-0.650362	-0.978668	-0.151195	-0.151195	12	-0.0419986	0	0.0419986	0.000000000000000E+000	0.0419986	0.0000000E+000	0.000000000000000E+000	0.000636489
2	0	0	1	0	0	0	635.434	-0.649954	-0.650381	-0.977156	-0.154518	-0.154518	12	-0.0429218	0	0.0429218	0.000000000000000E+000	0.0429218	0.0000000E+000	0.000000000000000E+000	0.000635524
2	0	0	1	0	0	0	638.834	-0.649954	-0.650305	-0.974196	-0.157834	-0.157834	12	-0.0438427	0	0.0438427	0.000000000000000E+000	0.0438427	0.0000000E+000	0.000000000000000E+000	0.000633525
2	0	0	1	0	0	0	642.234	-0.649954	-0.650114	-1.00618	-0.161202	-0.161202	12	-0.0447783	0	0.0447783	0.000000000000000E+000	0.0447783	0.0000000E+000	0.000000000000000E+000	0.000654133
2	0	0	1	0	0	0	645.634	-0.649954	-0.650534	-1.00339	-0.164616	-0.164616	12	-0.0457268	0	0.0457268	0.000000000000000E+000	0.0457268	0.0000000E+000	0.000000000000000E+000	0.000652742
2	0	0	1	0	0	0	649.034	-0.649954	-0.650267	-0.99833	-0.168019	-0.168019	12	-0.0466718	0	0.0466718	0.000000000000000E+000	0.0466718	0.0000000E+000	0.000000000000000E+000	0.000649181
2	0	0	1	0	0	0	652.434	-0.649954	-0.650324	-0.996045	-0.171411	-0.171411	12	-0.0476142	0	0.0476142	0.000000000000000E+000	0.0476142	0.0000000E+000	0.000000000000000E+000	0.000647752
2	0	0	1	0	0	0	655.232	-0.649954	-0.650343	-0.994486	-0.174195	-0.174195	12	-0.0483874	0	0.0483874	0.000000000000000E+000	0.0483874	0.0000000E+000	0.000000000000000E+000	0.000646757