File: ZnPVAECH_07 RDE 3 ECH 1600 rpm K-L.mpt
EC-Lab ASCII FILE
Nb header lines : 69

Chronoamperometry / Chronocoulometry

Run on channel : 5 (SN 6729)
User :
CE vs. WE compliance from -10 V to 10 V
Electrode connection : standard
Potential control : Ewe
Ewe ctrl range : min = -2.50 V, max = 2.50 V
Safety Limits :
	Do not start on E overload
Acquisition started on : 04/04/2022 13:04:27.143
Technique started on : 04/04/2022 13:12:52.126
Loaded Setting File :  NONE
Saved on :
	File : 04-22-22-Zn PVA ECH 1600 rpm K-L RDE1 gc_04_CA_C05.mpr
	Directory : \\research-scb.egr.msu.edu\research-scb\Mindy\Koutecky Levich\Zn PVA\ECH\04-04-22\
	Host : 35.9.136.210
Device : VSP (SN 0012)
Address : 35.9.137.65
EC-Lab for windows v11.43 (software)
Internet server v11.40 (firmware)
Command interpretor v11.40 (firmware)
Electrode material : Au/Pd
Initial state :
Electrolyte : NaCl (0.2M)
Comments : Fe(CN)63-/Fe(CN)64- 5.10-3 M
Reference electrode : SCE Saturated Calomel Electrode (0.241 V)
Electrode surface area : 0.196 cm²
Characteristic mass : 0.001 g
Equivalent Weight : 0.000 g/eq.
Density : 0.000 g/cm3
Volume (V) : 0.001 cm³
Cycle Definition : Charge/Discharge alternance
Ei (V)              -0.700
vs.                 Ref
ti (h:m:s)          0:30:0.0000
Imax                pass
unit Imax           mA
Imin                pass
unit Imin           mA
dQM                 0.000
unit dQM            mA.h
record              <I>
dI                  5.000
unit dI             µA
dQ                  0.000
unit dQ             mA.h
dt (s)              0.1000
dta (s)             0.1000
E range min (V)     -2.500
E range max (V)     2.500
I Range             Auto
I Range min         Unset
I Range max         Unset
I Range init        Unset
Bandwidth           5
goto Ns'            0
nc cycles           0

Modify on : 04/04/2022 13:13
Ei (V)              -0.800

Modify on : 04/04/2022 13:13
Ei (V)              -0.750

mode	ox/red	error	control changes	Ns changes	counter inc.	Ns	time/s	control/V	Ewe/V	<I>/mA	dQ/C	(Q-Qo)/C	I Range	Q charge/discharge/mA.h	half cycle	Q discharge/mA.h	Q charge/mA.h	Capacity/mA.h	Efficiency/%	cycle number	P/W
2	0	0	0	0	0	0	504.983	-0.699977	-0.700496	-0.80787	-3.91783e-05	-3.91783e-05	12	-1.08829e-05	0	1.08829e-05	0.000000000000000E+000	1.08829e-05	0.0000000E+000	0.000000000000000E+000	0.00056591
2	0	0	0	0	0	0	509.283	-0.699977	-0.700381	-0.809837	-0.00352473	-0.00352473	12	-0.000979093	0	0.000979093	0.000000000000000E+000	0.000979093	0.0000000E+000	0.000000000000000E+000	0.000567195
2	0	0	0	0	0	0	513.583	-0.699977	-0.700229	-0.807053	-0.00700053	-0.00700053	12	-0.00194459	0	0.00194459	0.000000000000000E+000	0.00194459	0.0000000E+000	0.000000000000000E+000	0.000565122
2	0	0	0	0	0	0	517.883	-0.699977	-0.700248	-0.804537	-0.0104645	-0.0104645	12	-0.0029068	0	0.0029068	0.000000000000000E+000	0.0029068	0.0000000E+000	0.000000000000000E+000	0.000563375
2	0	0	1	0	0	0	522.183	-0.800021	-0.800362	-2.41037	-0.0183449	-0.0183449	11	-0.0050958	0	0.0050958	0.000000000000000E+000	0.0050958	0.0000000E+000	0.000000000000000E+000	0.00192917
2	0	0	1	0	0	0	526.483	-0.800021	-0.800477	-2.40788	-0.0287004	-0.0287004	11	-0.00797234	0	0.00797234	0.000000000000000E+000	0.00797234	0.0000000E+000	0.000000000000000E+000	0.00192745
2	0	0	1	0	0	0	530.783	-0.800021	-0.800534	-2.39902	-0.0390251	-0.0390251	11	-0.0108403	0	0.0108403	0.000000000000000E+000	0.0108403	0.0000000E+000	0.000000000000000E+000	0.0019205
2	0	0	1	0	0	0	535.083	-0.800021	-0.800382	-2.3916	-0.0493121	-0.0493121	11	-0.0136978	0	0.0136978	0.000000000000000E+000	0.0136978	0.0000000E+000	0.000000000000000E+000	0.00191419
2	0	0	1	0	0	0	539.383	-0.800021	-0.800286	-2.38955	-0.0595922	-0.0595922	11	-0.0165534	0	0.0165534	0.000000000000000E+000	0.0165534	0.0000000E+000	0.000000000000000E+000	0.00191233
2	0	0	1	0	0	0	543.683	-0.800021	-0.800592	-2.38825	-0.069867	-0.069867	11	-0.0194075	0	0.0194075	0.000000000000000E+000	0.0194075	0.0000000E+000	0.000000000000000E+000	0.00191201
2	0	0	0	0	0	0	547.983	-0.749999	-0.750458	-1.50108	-0.0766446	-0.0766446	11	-0.0212902	0	0.0212902	0.000000000000000E+000	0.0212902	0.0000000E+000	0.000000000000000E+000	0.0011265
2	0	0	0	0	0	0	552.283	-0.749999	-0.750458	-1.49854	-0.0830915	-0.0830915	11	-0.023081	0	0.023081	0.000000000000000E+000	0.023081	0.0000000E+000	0.000000000000000E+000	0.00112459
2	0	0	0	0	0	0	556.583	-0.749999	-0.750477	-1.49566	-0.0895292	-0.0895292	11	-0.0248692	0	0.0248692	0.000000000000000E+000	0.0248692	0.0000000E+000	0.000000000000000E+000	0.00112246
2	0	0	0	0	0	0	560.883	-0.749999	-0.750381	-1.46321	-0.0958361	-0.0958361	11	-0.0266212	0	0.0266212	0.000000000000000E+000	0.0266212	0.0000000E+000	0.000000000000000E+000	0.00109796
2	0	0	0	0	0	0	565.183	-0.749999	-0.750553	-1.45897	-0.102118	-0.102118	11	-0.0283662	0	0.0283662	0.000000000000000E+000	0.0283662	0.0000000E+000	0.000000000000000E+000	0.00109503
2	0	0	0	0	0	0	569.483	-0.749999	-0.750362	-1.45337	-0.108378	-0.108378	11	-0.0301051	0	0.0301051	0.000000000000000E+000	0.0301051	0.0000000E+000	0.000000000000000E+000	0.00109055
2	0	0	0	0	0	0	573.783	-0.749999	-0.750439	-1.42384	-0.114577	-0.114577	11	-0.0318271	0	0.0318271	0.000000000000000E+000	0.0318271	0.0000000E+000	0.000000000000000E+000	0.0010685
2	0	0	0	0	0	0	578.083	-0.749999	-0.750381	-1.42432	-0.120704	-0.120704	11	-0.0335289	0	0.0335289	0.000000000000000E+000	0.0335289	0.0000000E+000	0.000000000000000E+000	0.00106879
2	0	0	0	0	0	0	582.383	-0.749999	-0.750477	-1.42324	-0.126829	-0.126829	11	-0.0352303	0	0.0352303	0.000000000000000E+000	0.0352303	0.0000000E+000	0.000000000000000E+000	0.00106811
2	0	0	0	0	0	0	586.683	-0.749999	-0.750458	-1.36045	-0.132818	-0.132818	11	-0.0368939	0	0.0368939	0.000000000000000E+000	0.0368939	0.0000000E+000	0.000000000000000E+000	0.00102096
2	0	0	0	0	0	0	590.983	-0.749999	-0.750458	-1.36537	-0.138679	-0.138679	11	-0.0385219	0	0.0385219	0.000000000000000E+000	0.0385219	0.0000000E+000	0.000000000000000E+000	0.00102465
2	0	0	0	0	0	0	595.283	-0.749999	-0.750477	-1.35718	-0.144533	-0.144533	11	-0.0401481	0	0.0401481	0.000000000000000E+000	0.0401481	0.0000000E+000	0.000000000000000E+000	0.00101853
2	0	0	0	0	0	0	599.583	-0.749999	-0.75042	-1.3576	-0.150381	-0.150381	11	-0.0417725	0	0.0417725	0.000000000000000E+000	0.0417725	0.0000000E+000	0.000000000000000E+000	0.00101877
2	0	0	0	0	0	0	603.883	-0.749999	-0.750439	-1.36201	-0.156219	-0.156219	11	-0.0433942	0	0.0433942	0.000000000000000E+000	0.0433942	0.0000000E+000	0.000000000000000E+000	0.0010221
2	0	0	0	0	0	0	608.183	-0.749999	-0.750611	-1.33015	-0.162047	-0.162047	11	-0.0450129	0	0.0450129	0.000000000000000E+000	0.0450129	0.0000000E+000	0.000000000000000E+000	0.000998424
2	0	0	0	0	0	0	612.483	-0.749999	-0.750458	-1.30941	-0.167694	-0.167694	11	-0.0465817	0	0.0465817	0.000000000000000E+000	0.0465817	0.0000000E+000	0.000000000000000E+000	0.000982659
2	0	0	0	0	0	0	616.783	-0.749999	-0.750572	-1.31038	-0.173334	-0.173334	11	-0.0481483	0	0.0481483	0.000000000000000E+000	0.0481483	0.0000000E+000	0.000000000000000E+000	0.000983534
2	0	0	0	0	0	0	621.083	-0.749999	-0.75042	-1.31654	-0.178974	-0.178974	11	-0.049715	0	0.049715	0.000000000000000E+000	0.049715	0.0000000E+000	0.000000000000000E+000	0.000987958
2	0	0	0	0	0	0	625.383	-0.749999	-0.750534	-1.24905	-0.184542	-0.184542	11	-0.0512618	0	0.0512618	0.000000000000000E+000	0.0512618	0.0000000E+000	0.000000000000000E+000	0.000937453
2	0	0	0	0	0	0	629.683	-0.749999	-0.750458	-1.24978	-0.189906	-0.189906	11	-0.0527516	0	0.0527516	0.000000000000000E+000	0.0527516	0.0000000E+000	0.000000000000000E+000	0.000937905
2	0	0	0	0	0	0	633.983	-0.749999	-0.750458	-1.25345	-0.195269	-0.195269	11	-0.0542415	0	0.0542415	0.000000000000000E+000	0.0542415	0.0000000E+000	0.000000000000000E+000	0.000940664
2	0	0	0	0	0	0	638.283	-0.749999	-0.750458	-1.23385	-0.200628	-0.200628	11	-0.0557299	0	0.0557299	0.000000000000000E+000	0.0557299	0.0000000E+000	0.000000000000000E+000	0.000925955
2	0	0	0	0	0	0	642.583	-0.749999	-0.750362	-1.18743	-0.205807	-0.205807	11	-0.0571686	0	0.0571686	0.000000000000000E+000	0.0571686	0.0000000E+000	0.000000000000000E+000	0.000891004
2	0	0	0	0	0	0	646.883	-0.749999	-0.750496	-1.18455	-0.21093	-0.21093	11	-0.0585917	0	0.0585917	0.000000000000000E+000	0.0585917	0.0000000E+000	0.000000000000000E+000	0.000889004
2	0	0	0	0	0	0	651.183	-0.749999	-0.750401	-1.18463	-0.216051	-0.216051	11	-0.0600142	0	0.0600142	0.000000000000000E+000	0.0600142	0.0000000E+000	0.000000000000000E+000	0.00088895
2	0	0	0	0	0	0	655.483	-0.749999	-0.750362	-1.18467	-0.221173	-0.221173	11	-0.061437	0	0.061437	0.000000000000000E+000	0.061437	0.0000000E+000	0.000000000000000E+000	0.000888933
2	0	0	0	0	0	0	659.783	-0.749999	-0.750362	-1.18301	-0.22629	-0.22629	11	-0.0628582	0	0.0628582	0.000000000000000E+000	0.0628582	0.0000000E+000	0.000000000000000E+000	0.000887689
2	0	0	0	0	0	0	664.083	-0.749999	-0.750477	-1.29105	-0.231643	-0.231643	11	-0.0643452	0	0.0643452	0.000000000000000E+000	0.0643452	0.0000000E+000	0.000000000000000E+000	0.000968904
2	0	0	0	0	0	0	668.383	-0.749999	-0.750553	-1.04911	-0.236493	-0.236493	11	-0.0656926	0	0.0656926	0.000000000000000E+000	0.0656926	0.0000000E+000	0.000000000000000E+000	0.000787409
2	0	0	0	0	0	0	672.683	-0.749999	-0.750553	-1.01786	-0.240903	-0.240903	11	-0.0669176	0	0.0669176	0.000000000000000E+000	0.0669176	0.0000000E+000	0.000000000000000E+000	0.000763955
2	0	0	0	0	0	0	676.983	-0.749999	-0.750591	-1.22748	-0.245588	-0.245588	11	-0.068219	0	0.068219	0.000000000000000E+000	0.068219	0.0000000E+000	0.000000000000000E+000	0.000921338
2	0	0	0	0	0	0	681.283	-0.749999	-0.750381	-1.2331	-0.250905	-0.250905	11	-0.0696958	0	0.0696958	0.000000000000000E+000	0.0696958	0.0000000E+000	0.000000000000000E+000	0.000925296
2	0	0	0	0	0	0	685.583	-0.749999	-0.750362	-1.23418	-0.256227	-0.256227	11	-0.0711742	0	0.0711742	0.000000000000000E+000	0.0711742	0.0000000E+000	0.000000000000000E+000	0.000926083
2	0	0	0	0	0	0	689.883	-0.749999	-0.750534	-1.29528	-0.261755	-0.261755	11	-0.0727098	0	0.0727098	0.000000000000000E+000	0.0727098	0.0000000E+000	0.000000000000000E+000	0.000972153
2	0	0	0	0	0	0	694.183	-0.749999	-0.750572	-1.29812	-0.267347	-0.267347	11	-0.074263	0	0.074263	0.000000000000000E+000	0.074263	0.0000000E+000	0.000000000000000E+000	0.000974333
2	0	0	0	0	0	0	698.483	-0.749999	-0.750381	-1.34673	-0.273091	-0.273091	11	-0.0758585	0	0.0758585	0.000000000000000E+000	0.0758585	0.0000000E+000	0.000000000000000E+000	0.00101056
2	0	0	0	0	0	0	702.783	-0.749999	-0.750324	-1.34225	-0.278869	-0.278869	11	-0.0774636	0	0.0774636	0.000000000000000E+000	0.0774636	0.0000000E+000	0.000000000000000E+000	0.00100712
2	0	0	0	0	0	0	707.083	-0.749999	-0.750381	-1.39685	-0.284835	-0.284835	11	-0.0791208	0	0.0791208	0.000000000000000E+000	0.0791208	0.0000000E+000	0.000000000000000E+000	0.00104817
2	0	0	0	0	0	0	711.383	-0.749999	-0.750515	-1.42114	-0.290855	-0.290855	11	-0.0807931	0	0.0807931	0.000000000000000E+000	0.0807931	0.0000000E+000	0.000000000000000E+000	0.00106659
2	0	0	0	0	0	0	715.683	-0.749999	-0.750477	-1.41386	-0.296954	-0.296954	11	-0.0824872	0	0.0824872	0.000000000000000E+000	0.0824872	0.0000000E+000	0.000000000000000E+000	0.00106107
2	0	0	0	0	0	0	719.983	-0.749999	-0.750381	-1.41191	-0.303038	-0.303038	11	-0.0841771	0	0.0841771	0.000000000000000E+000	0.0841771	0.0000000E+000	0.000000000000000E+000	0.00105947
2	0	0	0	0	0	0	724.283	-0.749999	-0.750496	-1.39764	-0.309176	-0.309176	11	-0.0858822	0	0.0858822	0.000000000000000E+000	0.0858822	0.0000000E+000	0.000000000000000E+000	0.00104892
2	0	0	0	0	0	0	728.583	-0.749999	-0.750458	-1.40792	-0.315207	-0.315207	11	-0.0875574	0	0.0875574	0.000000000000000E+000	0.0875574	0.0000000E+000	0.000000000000000E+000	0.00105659
2	0	0	0	0	0	0	732.883	-0.749999	-0.750553	-1.43003	-0.321273	-0.321273	11	-0.0892424	0	0.0892424	0.000000000000000E+000	0.0892424	0.0000000E+000	0.000000000000000E+000	0.00107331
2	0	0	0	0	0	0	737.183	-0.749999	-0.750611	-1.38418	-0.327362	-0.327362	11	-0.0909339	0	0.0909339	0.000000000000000E+000	0.0909339	0.0000000E+000	0.000000000000000E+000	0.00103898
2	0	0	0	0	0	0	741.197	-0.749999	-0.750324	-1.40446	-0.33298	-0.33298	11	-0.0924943	0	0.0924943	0.000000000000000E+000	0.0924943	0.0000000E+000	0.000000000000000E+000	0.0010538